Data from Energiesparlampe_USB4F035431__0__12-32-18-324.txt Node

Date: Tue Feb 02 12:32:18 CET 2021
User: Praktikum
Spectrometer: USB4F03543
Trigger mode: 4
Integration Time (sec): 1,000000E-1
Scans to average: 1
Electric dark correction enabled: true
Nonlinearity correction enabled: false
Boxcar width: 0
XAxis mode: Wavelengths
Number of Pixels in Spectrum: 3648
>>>>>Begin Spectral Data<<<<<
179,969	-96,43
180,181	-96,43
180,394	-96,43
180,606	-129,19
180,819	-123,05
181,031	-28,84
181,243	132,95
181,456	26,45
181,668	87,89
181,88	-18,6
182,093	-6,31
182,305	-71,85
182,518	-47,27
182,73	48,98
182,942	-24,75
183,155	-43,18
183,367	-55,47
183,579	89,94
183,791	28,5
184,004	-45,23
184,216	36,69
184,428	-8,36
184,641	42,84
184,853	-47,27
185,065	10,07
185,277	57,17
185,49	34,64
185,702	-88,23
185,914	-57,51
186,126	71,51
186,338	81,75
186,551	59,22
186,763	-4,27
186,975	-55,47
187,187	-6,31
187,399	5,97
187,612	-18,6
187,824	-32,94
188,036	44,88
188,248	-6,31
188,46	48,98
188,672	-4,27
188,885	-28,84
189,097	28,5
189,309	-73,9
189,521	65,36
189,733	14,17
189,945	-0,17
190,157	24,4
190,369	-75,95
190,581	-67,75
190,794	91,99
191,006	-114,86
191,218	16,21
191,43	-24,75
191,642	-84,14
191,854	24,4
192,066	53,08
192,278	-0,17
192,49	-112,81
192,702	26,45
192,914	73,56
193,126	36,69
193,338	-0,17
193,55	-8,36
193,762	24,4
193,974	-41,13
194,186	-55,47
194,398	-82,09
194,61	16,21
194,822	65,36
195,034	44,88
195,246	108,37
195,457	12,12
195,669	46,93
195,881	-22,7
196,093	-18,6
196,305	30,55
196,517	-116,9
196,729	8,02
196,941	10,07
197,153	36,69
197,365	46,93
197,576	53,08
197,788	20,31
198	-22,7
198,212	14,17
198,424	106,32
198,636	-57,51
198,847	26,45
199,059	-39,08
199,271	-18,6
199,483	-47,27
199,695	-24,75
199,906	106,32
200,118	5,97
200,33	42,84
200,542	311,12
200,753	-6,31
200,965	-2,22
201,177	-26,79
201,389	48,98
201,6	-92,33
201,812	-6,31
202,024	3,93
202,235	-37,03
202,447	71,51
202,659	30,55
202,871	18,26
203,082	-24,75
203,294	-82,09
203,506	40,79
203,717	12,12
203,929	40,79
204,141	18,26
204,352	75,6
204,564	-65,71
204,775	40,79
204,987	16,21
205,199	-12,46
205,41	38,74
205,622	36,69
205,833	24,4
206,045	28,5
206,257	-2,22
206,468	22,36
206,68	-10,41
206,891	-16,55
207,103	3,93
207,314	14,17
207,526	22,36
207,737	-104,62
207,949	57,17
208,16	-10,41
208,372	32,6
208,583	-14,51
208,795	5,97
209,006	22,36
209,218	55,12
209,429	-84,14
209,641	-32,94
209,852	-30,89
210,064	34,64
210,275	-0,17
210,487	-16,55
210,698	63,32
210,909	38,74
211,121	32,6
211,332	-6,31
211,544	30,55
211,755	55,12
211,966	120,66
212,178	-20,65
212,389	112,47
212,6	-8,36
212,812	91,99
213,023	-6,31
213,234	79,7
213,446	5,97
213,657	-71,85
213,868	75,6
214,08	75,6
214,291	42,84
214,502	48,98
214,714	-65,71
214,925	10,07
215,136	10,07
215,347	-37,03
215,559	-14,51
215,77	16,21
215,981	112,47
216,192	-51,37
216,404	3,93
216,615	18,26
216,826	57,17
217,037	-16,55
217,249	14,17
217,46	73,56
217,671	53,08
217,882	-20,65
218,093	-18,6
218,304	30,55
218,516	91,99
218,727	-73,9
218,938	-53,42
219,149	102,23
219,36	30,55
219,571	36,69
219,782	-51,37
219,993	48,98
220,205	-112,81
220,416	-47,27
220,627	16,21
220,838	24,4
221,049	161,62
221,26	73,56
221,471	32,6
221,682	5,97
221,893	46,93
222,104	-34,99
222,315	-22,7
222,526	-47,27
222,737	-41,13
222,948	-32,94
223,159	-18,6
223,37	16,21
223,581	-16,55
223,792	-57,51
224,003	-80,04
224,214	-65,71
224,425	-20,65
224,636	48,98
224,847	-37,03
225,058	22,36
225,269	28,5
225,48	-28,84
225,691	42,84
225,902	57,17
226,112	-12,46
226,323	-71,85
226,534	-84,14
226,745	-2,22
226,956	-14,51
227,167	65,36
227,378	120,66
227,589	38,74
227,799	94,04
228,01	-26,79
228,221	1,88
228,432	-0,17
228,643	-20,65
228,853	-61,61
229,064	1,88
229,275	14,17
229,486	-12,46
229,697	-4,27
229,907	-4,27
230,118	59,22
230,329	-73,9
230,54	-24,75
230,75	67,41
230,961	59,22
231,172	-71,85
231,383	-6,31
231,593	-41,13
231,804	8,02
232,015	-8,36
232,225	79,7
232,436	-4,27
232,647	83,8
232,857	96,08
233,068	59,22
233,279	87,89
233,489	28,5
233,7	-12,46
233,91	-30,89
234,121	-6,31
234,332	32,6
234,542	51,03
234,753	-14,51
234,964	120,66
235,174	1,88
235,385	12,12
235,595	-16,55
235,806	87,89
236,016	14,17
236,227	-71,85
236,437	-59,56
236,648	-8,36
236,858	48,98
237,069	-80,04
237,279	-39,08
237,49	-22,7
237,7	3,93
237,911	14,17
238,121	-53,42
238,332	-37,03
238,542	-34,99
238,753	-12,46
238,963	-75,95
239,174	100,18
239,384	-37,03
239,595	-41,13
239,805	16,21
240,015	-10,41
240,226	16,21
240,436	-4,27
240,647	42,84
240,857	-16,55
241,067	51,03
241,278	102,23
241,488	-24,75
241,698	108,37
241,909	-10,41
242,119	34,64
242,329	100,18
242,54	46,93
242,75	10,07
242,96	5,97
243,171	-4,27
243,381	-43,18
243,591	-67,75
243,801	71,51
244,012	96,08
244,222	-47,27
244,432	-116,9
244,642	-37,03
244,853	-112,81
245,063	-18,6
245,273	1,88
245,483	-30,89
245,694	-0,17
245,904	-18,6
246,114	48,98
246,324	-92,33
246,534	16,21
246,744	-39,08
246,955	-8,36
247,165	120,66
247,375	73,56
247,585	5,97
247,795	-75,95
248,005	14,17
248,215	22,36
248,425	48,98
248,636	132,95
248,846	18,26
249,056	-22,7
249,266	-30,89
249,476	-10,41
249,686	-28,84
249,896	-41,13
250,106	44,88
250,316	-34,99
250,526	46,93
250,736	-39,08
250,946	89,94
251,156	155,47
251,366	-30,89
251,576	69,46
251,786	87,89
251,996	-55,47
252,206	-0,17
252,416	57,17
252,626	12,12
252,836	-51,37
253,046	-8,36
253,256	48,98
253,466	-57,51
253,676	28,5
253,885	61,27
254,095	-12,46
254,305	22,36
254,515	24,4
254,725	-22,7
254,935	59,22
255,145	55,12
255,355	40,79
255,564	3,93
255,774	18,26
255,984	77,65
256,194	32,6
256,404	14,17
256,614	-6,31
256,823	75,6
257,033	-37,03
257,243	34,64
257,453	14,17
257,662	-14,51
257,872	91,99
258,082	26,45
258,292	-71,85
258,501	91,99
258,711	169,81
258,921	67,41
259,131	-94,38
259,34	-10,41
259,55	-4,27
259,76	-55,47
259,969	32,6
260,179	-24,75
260,389	-12,46
260,598	96,08
260,808	69,46
261,018	12,12
261,227	71,51
261,437	-12,46
261,647	1,88
261,856	-34,99
262,066	48,98
262,275	116,56
262,485	-28,84
262,694	65,36
262,904	20,31
263,114	16,21
263,323	-22,7
263,533	28,5
263,742	-41,13
263,952	-22,7
264,161	8,02
264,371	57,17
264,58	73,56
264,79	5,97
264,999	28,5
265,209	32,6
265,418	38,74
265,628	-16,55
265,837	34,64
266,047	18,26
266,256	137,04
266,466	-2,22
266,675	26,45
266,884	18,26
267,094	-10,41
267,303	44,88
267,513	30,55
267,722	149,33
267,931	-4,27
268,141	34,64
268,35	34,64
268,559	79,7
268,769	34,64
268,978	-57,51
269,187	14,17
269,397	8,02
269,606	-69,8
269,815	12,12
270,025	48,98
270,234	-4,27
270,443	-67,75
270,653	51,03
270,862	8,02
271,071	5,97
271,28	-24,75
271,49	42,84
271,699	-82,09
271,908	96,08
272,117	34,64
272,327	-77,99
272,536	-8,36
272,745	-24,75
272,954	-0,17
273,163	3,93
273,372	122,71
273,582	24,4
273,791	81,75
274	24,4
274,209	14,17
274,418	40,79
274,627	75,6
274,836	-14,51
275,046	-4,27
275,255	1,88
275,464	-49,32
275,673	-6,31
275,882	-12,46
276,091	10,07
276,3	42,84
276,509	22,36
276,718	16,21
276,927	10,07
277,136	116,56
277,345	24,4
277,554	57,17
277,763	38,74
277,972	40,79
278,181	48,98
278,39	-16,55
278,599	48,98
278,808	18,26
279,017	55,12
279,226	-100,52
279,435	24,4
279,644	-55,47
279,853	61,27
280,062	83,8
280,271	-55,47
280,48	-30,89
280,688	34,64
280,897	59,22
281,106	-41,13
281,315	-16,55
281,524	46,93
281,733	-53,42
281,942	57,17
282,151	-34,99
282,359	91,99
282,568	-59,56
282,777	30,55
282,986	5,97
283,195	22,36
283,403	-10,41
283,612	40,79
283,821	-37,03
284,03	-8,36
284,238	10,07
284,447	51,03
284,656	-34,99
284,865	61,27
285,073	-30,89
285,282	3,93
285,491	57,17
285,699	-14,51
285,908	-12,46
286,117	28,5
286,325	-30,89
286,534	85,84
286,743	-6,31
286,951	10,07
287,16	-65,71
287,369	-4,27
287,577	-43,18
287,786	18,26
287,995	-14,51
288,203	40,79
288,412	-57,51
288,62	8,02
288,829	-55,47
289,037	79,7
289,246	16,21
289,455	26,45
289,663	30,55
289,872	120,66
290,08	5,97
290,289	59,22
290,497	-63,66
290,706	24,4
290,914	-73,9
291,123	-18,6
291,331	-8,36
291,54	48,98
291,748	91,99
291,957	18,26
292,165	10,07
292,373	10,07
292,582	-51,37
292,79	28,5
292,999	87,89
293,207	3,93
293,415	34,64
293,624	-57,51
293,832	18,26
294,041	-0,17
294,249	18,26
294,457	-12,46
294,666	81,75
294,874	-75,95
295,082	-16,55
295,291	-2,22
295,499	63,32
295,707	40,79
295,915	75,6
296,124	46,93
296,332	-41,13
296,54	10,07
296,749	108,37
296,957	98,13
297,165	-6,31
297,373	-14,51
297,581	16,21
297,79	32,6
297,998	-22,7
298,206	8,02
298,414	34,64
298,622	63,32
298,831	14,17
299,039	-39,08
299,247	12,12
299,455	-10,41
299,663	122,71
299,871	-14,51
300,08	16,21
300,288	-18,6
300,496	16,21
300,704	55,12
300,912	-16,55
301,12	16,21
301,328	-6,31
301,536	-28,84
301,744	-55,47
301,952	12,12
302,16	-8,36
302,368	-67,75
302,576	67,41
302,784	12,12
302,992	-90,28
303,2	-20,65
303,408	-0,17
303,616	-6,31
303,824	71,51
304,032	32,6
304,24	63,32
304,448	38,74
304,656	-80,04
304,864	34,64
305,072	42,84
305,28	77,65
305,488	-20,65
305,696	61,27
305,904	69,46
306,111	-41,13
306,319	-34,99
306,527	-6,31
306,735	46,93
306,943	104,28
307,151	3,93
307,359	-14,51
307,566	5,97
307,774	16,21
307,982	20,31
308,19	10,07
308,398	12,12
308,605	-43,18
308,813	-0,17
309,021	-39,08
309,229	24,4
309,436	-73,9
309,644	85,84
309,852	145,24
310,06	10,07
310,267	-55,47
310,475	89,94
310,683	34,64
310,89	55,12
311,098	75,6
311,306	-14,51
311,513	18,26
311,721	-12,46
311,929	-4,27
312,136	-6,31
312,344	-18,6
312,552	18,26
312,759	-22,7
312,967	91,99
313,174	69,46
313,382	-12,46
313,589	51,03
313,797	10,07
314,005	30,55
314,212	30,55
314,42	-28,84
314,627	-20,65
314,835	1,88
315,042	22,36
315,25	-47,27
315,457	-22,7
315,665	-114,86
315,872	-0,17
316,08	36,69
316,287	-12,46
316,495	274,26
316,702	-65,71
316,909	-102,57
317,117	10,07
317,324	61,27
317,532	44,88
317,739	-80,04
317,946	1,88
318,154	-43,18
318,361	-12,46
318,569	46,93
318,776	-55,47
318,983	-100,52
319,191	18,26
319,398	22,36
319,605	-12,46
319,813	26,45
320,02	-32,94
320,227	-20,65
320,434	75,6
320,642	-6,31
320,849	-6,31
321,056	3,93
321,264	34,64
321,471	-8,36
321,678	46,93
321,885	63,32
322,092	89,94
322,3	34,64
322,507	-34,99
322,714	18,26
322,921	-47,27
323,128	-6,31
323,336	-47,27
323,543	57,17
323,75	44,88
323,957	18,26
324,164	-0,17
324,371	3,93
324,578	-98,47
324,786	51,03
324,993	-30,89
325,2	75,6
325,407	-84,14
325,614	16,21
325,821	71,51
326,028	81,75
326,235	10,07
326,442	-0,17
326,649	61,27
326,856	-6,31
327,063	-4,27
327,27	-43,18
327,477	-12,46
327,684	-16,55
327,891	-39,08
328,098	5,97
328,305	128,85
328,512	-51,37
328,719	124,76
328,926	30,55
329,133	-39,08
329,34	153,43
329,546	-22,7
329,753	-8,36
329,96	-82,09
330,167	42,84
330,374	91,99
330,581	16,21
330,788	-61,61
330,995	26,45
331,201	20,31
331,408	26,45
331,615	-59,56
331,822	36,69
332,029	-18,6
332,235	-0,17
332,442	-61,61
332,649	-73,9
332,856	-61,61
333,062	26,45
333,269	-10,41
333,476	42,84
333,683	73,56
333,889	42,84
334,096	91,99
334,303	81,75
334,509	59,22
334,716	89,94
334,923	30,55
335,129	-41,13
335,336	28,5
335,543	-0,17
335,749	5,97
335,956	89,94
336,163	-80,04
336,369	32,6
336,576	57,17
336,782	-22,7
336,989	-41,13
337,196	18,26
337,402	-22,7
337,609	-16,55
337,815	-12,46
338,022	34,64
338,228	30,55
338,435	194,39
338,641	55,12
338,848	67,41
339,054	124,76
339,261	61,27
339,467	-51,37
339,674	40,79
339,88	3,93
340,087	16,21
340,293	16,21
340,5	89,94
340,706	51,03
340,912	32,6
341,119	-2,22
341,325	1,88
341,532	-30,89
341,738	-12,46
341,944	73,56
342,151	1,88
342,357	10,07
342,563	96,08
342,77	-2,22
342,976	65,36
343,182	194,39
343,389	71,51
343,595	-0,17
343,801	44,88
344,007	59,22
344,214	-28,84
344,42	18,26
344,626	-47,27
344,832	10,07
345,039	-2,22
345,245	79,7
345,451	40,79
345,657	-34,99
345,864	46,93
346,07	40,79
346,276	59,22
346,482	141,14
346,688	128,85
346,894	-8,36
347,1	75,6
347,307	87,89
347,513	73,56
347,719	85,84
347,925	83,8
348,131	20,31
348,337	130,9
348,543	-24,75
348,749	77,65
348,955	165,71
349,161	26,45
349,367	44,88
349,573	94,04
349,779	77,65
349,985	114,52
350,191	-20,65
350,397	91,99
350,603	112,47
350,809	36,69
351,015	81,75
351,221	51,03
351,427	104,28
351,633	81,75
351,839	145,24
352,045	120,66
352,251	169,81
352,457	89,94
352,663	83,8
352,869	124,76
353,075	98,13
353,28	53,08
353,486	65,36
353,692	46,93
353,898	75,6
354,104	32,6
354,31	204,63
354,515	57,17
354,721	57,17
354,927	51,03
355,133	75,6
355,339	14,17
355,544	102,23
355,75	89,94
355,956	157,52
356,162	165,71
356,367	46,93
356,573	96,08
356,779	67,41
356,984	83,8
357,19	157,52
357,396	116,56
357,602	112,47
357,807	114,52
358,013	161,62
358,218	102,23
358,424	71,51
358,63	110,42
358,835	87,89
359,041	24,4
359,247	118,61
359,452	73,56
359,658	-4,27
359,863	98,13
360,069	155,47
360,274	114,52
360,48	135
360,685	81,75
360,891	116,56
361,097	104,28
361,302	67,41
361,508	157,52
361,713	100,18
361,918	204,63
362,124	100,18
362,329	139,09
362,535	149,33
362,74	63,32
362,946	165,71
363,151	145,24
363,357	235,35
363,562	331,6
363,767	483,15
363,973	1048,39
364,178	1984,31
364,383	3137,32
364,589	4069,14
364,794	4577,04
365	4697,87
365,205	3841,82
365,41	2903,85
365,615	2377,52
365,821	1654,59
366,026	1468,22
366,231	1150,79
366,437	1040,2
366,642	466,77
366,847	354,13
367,052	167,76
367,258	67,41
367,463	55,12
367,668	124,76
367,873	163,67
368,078	94,04
368,284	65,36
368,489	65,36
368,694	141,14
368,899	159,57
369,104	141,14
369,309	139,09
369,515	59,22
369,72	149,33
369,925	32,6
370,13	89,94
370,335	65,36
370,54	83,8
370,745	145,24
370,95	67,41
371,155	139,09
371,36	143,19
371,565	163,67
371,77	141,14
371,975	-6,31
372,18	102,23
372,385	173,91
372,59	106,32
372,795	91,99
373	118,61
373,205	141,14
373,41	91,99
373,615	89,94
373,82	-0,17
374,025	91,99
374,23	77,65
374,435	85,84
374,64	112,47
374,845	165,71
375,05	42,84
375,254	122,71
375,459	81,75
375,664	63,32
375,869	77,65
376,074	30,55
376,279	106,32
376,483	75,6
376,688	94,04
376,893	188,24
377,098	20,31
377,303	112,47
377,507	165,71
377,712	114,52
377,917	155,47
378,122	149,33
378,326	132,95
378,531	69,46
378,736	83,8
378,94	124,76
379,145	151,38
379,35	147,28
379,554	108,37
379,759	81,75
379,964	116,56
380,168	98,13
380,373	108,37
380,578	149,33
380,782	190,29
380,987	161,62
381,191	130,9
381,396	153,43
381,601	149,33
381,805	149,33
382,01	214,87
382,214	175,95
382,419	108,37
382,623	71,51
382,828	108,37
383,032	46,93
383,237	34,64
383,441	55,12
383,646	122,71
383,85	-22,7
384,055	100,18
384,259	26,45
384,464	10,07
384,668	34,64
384,872	61,27
385,077	55,12
385,281	75,6
385,486	22,36
385,69	38,74
385,894	118,61
386,099	173,91
386,303	22,36
386,507	96,08
386,712	69,46
386,916	-16,55
387,12	67,41
387,325	67,41
387,529	24,4
387,733	126,8
387,937	67,41
388,142	65,36
388,346	46,93
388,55	87,89
388,754	42,84
388,959	42,84
389,163	85,84
389,367	44,88
389,571	116,56
389,775	155,47
389,98	161,62
390,184	83,8
390,388	32,6
390,592	85,84
390,796	-47,27
391	130,9
391,204	61,27
391,409	12,12
391,613	106,32
391,817	24,4
392,021	65,36
392,225	73,56
392,429	22,36
392,633	-6,31
392,837	44,88
393,041	28,5
393,245	8,02
393,449	42,84
393,653	48,98
393,857	53,08
394,061	91,99
394,265	24,4
394,469	48,98
394,673	26,45
394,877	1,88
395,081	94,04
395,285	91,99
395,489	34,64
395,693	51,03
395,896	-4,27
396,1	124,76
396,304	69,46
396,508	38,74
396,712	116,56
396,916	26,45
397,12	10,07
397,323	139,09
397,527	51,03
397,731	151,38
397,935	77,65
398,139	65,36
398,342	28,5
398,546	48,98
398,75	-4,27
398,954	22,36
399,157	55,12
399,361	104,28
399,565	-24,75
399,769	75,6
399,972	73,56
400,176	48,98
400,38	59,22
400,583	18,26
400,787	34,64
400,991	83,8
401,194	77,65
401,398	18,26
401,601	42,84
401,805	75,6
402,009	79,7
402,212	81,75
402,416	206,67
402,619	112,47
402,823	366,42
403,026	630,6
403,23	1197,89
403,433	2662,19
403,637	4859,66
403,841	7720,67
404,044	9553,6
404,247	10430,13
404,451	9961,15
404,654	7718,62
404,858	4491,02
405,061	2287,41
405,265	1212,23
405,468	823,11
405,672	350,03
405,875	286,54
406,078	167,76
406,282	210,77
406,485	204,63
406,689	454,48
406,892	757,58
407,095	927,56
407,299	991,05
407,502	1058,63
407,705	878,41
407,909	636,75
408,112	245,59
408,315	235,35
408,518	231,25
408,722	91,99
408,925	108,37
409,128	81,75
409,331	18,26
409,535	96,08
409,738	122,71
409,941	264,02
410,144	124,76
410,347	233,3
410,551	165,71
410,754	161,62
410,957	196,43
411,16	61,27
411,363	141,14
411,566	116,56
411,769	128,85
411,973	112,47
412,176	149,33
412,379	110,42
412,582	163,67
412,785	149,33
412,988	91,99
413,191	155,47
413,394	132,95
413,597	157,52
413,8	116,56
414,003	233,3
414,206	116,56
414,409	204,63
414,612	167,76
414,815	206,67
415,018	77,65
415,221	149,33
415,424	214,87
415,627	231,25
415,83	124,76
416,033	212,82
416,235	210,77
416,438	198,48
416,641	198,48
416,844	161,62
417,047	100,18
417,25	198,48
417,453	169,81
417,655	165,71
417,858	223,06
418,061	96,08
418,264	149,33
418,467	116,56
418,669	200,53
418,872	223,06
419,075	116,56
419,278	196,43
419,48	149,33
419,683	137,04
419,886	143,19
420,089	200,53
420,291	227,15
420,494	157,52
420,697	137,04
420,899	257,87
421,102	171,86
421,305	147,28
421,507	186,19
421,71	155,47
421,912	247,63
422,115	120,66
422,318	184,15
422,52	255,83
422,723	190,29
422,925	198,48
423,128	190,29
423,33	104,28
423,533	198,48
423,735	206,67
423,938	214,87
424,14	178
424,343	261,97
424,545	245,59
424,748	221,01
424,95	202,58
425,153	204,63
425,355	96,08
425,558	307,02
425,76	264,02
425,962	255,83
426,165	210,77
426,367	212,82
426,57	278,35
426,772	253,78
426,974	241,49
427,177	106,32
427,379	186,19
427,581	345,94
427,784	184,15
427,986	163,67
428,188	272,21
428,39	278,35
428,593	210,77
428,795	313,17
428,997	313,17
429,2	261,97
429,402	251,73
429,604	188,24
429,806	237,39
430,008	345,94
430,211	276,31
430,413	208,72
430,615	231,25
430,817	288,59
431,019	239,44
431,221	317,26
431,423	237,39
431,626	300,88
431,828	323,41
432,03	282,45
432,232	321,36
432,434	407,38
432,636	321,36
432,838	345,94
433,04	442,19
433,242	554,83
433,444	575,31
433,646	870,22
433,848	1220,42
434,05	2129,72
434,252	3641,12
434,454	7349,99
434,656	14696,05
434,858	22984,18
435,06	27047,35
435,262	28741,02
435,464	29992,33
435,666	24595,93
435,868	15099,5
436,07	9668,29
436,271	5594,88
436,473	3221,28
436,675	2254,64
436,877	1521,47
437,079	1032,01
437,281	753,48
437,482	550,73
437,684	528,21
437,886	431,95
438,088	431,95
438,29	417,61
438,491	364,37
438,693	380,75
438,895	450,38
439,097	395,09
439,298	354,13
439,5	335,7
439,702	307,02
439,903	395,09
440,105	388,94
440,307	444,24
440,508	409,42
440,71	329,55
440,912	448,33
441,113	390,99
441,315	380,75
441,517	405,33
441,718	395,09
441,92	386,9
442,121	380,75
442,323	325,46
442,524	313,17
442,726	376,66
442,928	345,94
443,129	311,12
443,331	309,07
443,532	368,46
443,734	294,74
443,935	485,2
444,136	290,64
444,338	403,28
444,539	395,09
444,741	407,38
444,942	354,13
445,144	390,99
445,345	403,28
445,546	325,46
