Data from Fenster geschlossen_USB4F035431__0__13-32-15-592.txt Node

Date: Tue Feb 02 13:32:15 CET 2021
User: Praktikum
Spectrometer: USB4F03543
Trigger mode: 4
Integration Time (sec): 5,020000E-1
Scans to average: 1
Electric dark correction enabled: true
Nonlinearity correction enabled: false
Boxcar width: 0
XAxis mode: Wavelengths
Number of Pixels in Spectrum: 3648
>>>>>Begin Spectral Data<<<<<
179,969	-741,71
180,181	-741,71
180,394	-741,71
180,606	-723,27
180,819	-731,47
181,031	370,34
181,243	513,7
181,456	-280,91
181,668	-168,27
181,88	274,09
182,093	-41,3
182,305	-328,02
182,518	-250,19
182,73	394,92
182,942	120,49
183,155	-319,82
183,367	-285,01
183,579	294,57
183,791	351,91
184,004	-219,47
184,216	-213,33
184,428	110,25
184,641	208,55
184,853	-282,96
185,065	-280,91
185,277	313
185,49	337,57
185,702	-237,91
185,914	-182,61
186,126	267,94
186,338	317,09
186,551	-352,59
186,763	-160,08
186,975	61,1
187,187	302,76
187,399	-280,91
187,612	-209,23
187,824	128,68
188,036	218,79
188,248	-149,84
188,46	-266,58
188,672	284,33
188,885	110,25
189,097	-190,8
189,309	-244,05
189,521	175,78
189,733	302,76
189,945	-207,19
190,157	-106,84
190,369	110,25
190,581	128,68
190,794	-149,84
191,006	-239,95
191,218	128,68
191,43	200,36
191,642	-291,15
191,854	-188,75
192,066	341,67
192,278	315,05
192,49	-330,06
192,702	-117,08
192,914	257,7
193,126	276,13
193,338	-194,9
193,55	-223,57
193,762	304,81
193,974	-139,6
194,186	-282,96
194,398	-143,7
194,61	229,03
194,822	261,8
195,034	-264,53
195,246	11,95
195,457	259,75
195,669	542,37
195,881	-211,28
196,093	-225,62
196,305	251,56
196,517	-121,17
196,729	-166,23
196,941	-231,76
197,153	411,3
197,365	566,95
197,576	-264,53
197,788	-190,8
198	282,28
198,212	558,75
198,424	-272,72
198,636	-282,96
198,847	-37,2
199,059	257,7
199,271	-266,58
199,483	-147,8
199,695	255,65
199,906	251,56
200,118	-205,14
200,33	-72,02
200,542	886,43
200,753	165,54
200,965	-242
201,177	-168,27
201,389	136,87
201,6	-86,36
201,812	-166,23
202,024	-190,8
202,235	100,01
202,447	485,03
202,659	-297,3
202,871	-178,51
203,082	210,6
203,294	-2,39
203,506	-246,1
203,717	-153,94
203,929	218,79
204,141	-22,87
204,352	-182,61
204,564	-170,32
204,775	216,74
204,987	454,31
205,199	-276,82
205,41	-94,55
205,622	388,77
205,833	167,59
206,045	-141,65
206,257	-215,38
206,468	-98,64
206,68	44,71
206,891	-100,69
207,103	-170,32
207,314	-84,31
207,526	222,89
207,737	-217,43
207,949	-43,35
208,16	255,65
208,372	333,48
208,583	-223,57
208,795	-248,15
209,006	208,55
209,218	267,94
209,429	-266,58
209,641	-188,75
209,852	81,58
210,064	237,22
210,275	-219,47
210,487	-155,99
210,698	372,39
210,909	308,9
211,121	-223,57
211,332	-129,36
211,544	298,66
211,755	495,27
211,966	11,95
212,178	-295,25
212,389	560,8
212,6	95,91
212,812	69,29
213,023	-244,05
213,234	364,2
213,446	235,18
213,657	-285,01
213,868	-170,32
214,08	542,37
214,291	249,51
214,502	-174,42
214,714	-256,34
214,925	147,11
215,136	110,25
215,347	-162,13
215,559	-215,38
215,77	-0,34
215,981	444,07
216,192	-250,19
216,404	-209,23
216,615	272,04
216,826	366,25
217,037	-203,09
217,249	-127,32
217,46	456,36
217,671	192,17
217,882	-201,04
218,093	-158,03
218,304	286,37
218,516	382,63
218,727	-381,26
218,938	-209,23
219,149	603,81
219,36	226,98
219,571	-285,01
219,782	-293,2
219,993	507,55
220,205	11,95
220,416	-141,65
220,627	-244,05
220,838	380,58
221,049	833,18
221,26	-293,2
221,471	-205,14
221,682	366,25
221,893	427,68
222,104	-166,23
222,315	-250,19
222,526	11,95
222,737	153,26
222,948	-239,95
223,159	-96,6
223,37	210,6
223,581	136,87
223,792	-250,19
224,003	-108,88
224,214	73,39
224,425	165,54
224,636	-330,06
224,847	-127,32
225,058	284,33
225,269	237,22
225,48	-219,47
225,691	-338,26
225,902	251,56
226,112	151,21
226,323	-319,82
226,534	-315,73
226,745	192,17
226,956	95,91
227,167	-221,52
227,378	-141,65
227,589	30,38
227,799	511,65
228,01	-209,23
228,221	-248,15
228,432	159,4
228,643	-69,97
228,853	-198,99
229,064	-201,04
229,275	265,89
229,486	63,15
229,697	-143,7
229,907	-149,84
230,118	210,6
230,329	30,38
230,54	-233,81
230,75	-133,46
230,961	306,85
231,172	40,62
231,383	-207,19
231,593	-311,63
231,804	372,39
232,015	165,54
232,225	-264,53
232,436	-174,42
232,647	317,09
232,857	386,72
233,068	-291,15
233,279	-153,94
233,489	132,78
233,7	214,7
233,91	-190,8
234,121	-239,95
234,332	179,88
234,542	231,08
234,753	-252,24
234,964	-102,74
235,174	153,26
235,385	280,23
235,595	-176,47
235,806	-166,23
236,016	85,67
236,227	87,72
236,437	-332,11
236,648	-231,76
236,858	257,7
237,069	38,57
237,279	-162,13
237,49	-289,1
237,7	339,62
237,911	222,89
238,121	-242
238,332	-262,48
238,542	347,81
238,753	173,74
238,963	-264,53
239,174	-291,15
239,384	159,4
239,595	147,11
239,805	-233,81
240,015	-207,19
240,226	208,55
240,436	239,27
240,647	-231,76
240,857	-141,65
241,067	198,31
241,278	997,02
241,488	-291,15
241,698	-117,08
241,909	71,34
242,119	196,26
242,329	-215,38
242,54	-139,6
242,75	124,58
242,96	54,95
243,171	-82,26
243,381	-246,1
243,591	40,62
243,801	462,5
244,012	-12,63
244,222	-94,55
244,432	-153,94
244,642	112,3
244,853	-223,57
245,063	-133,46
245,273	300,71
245,483	120,49
245,694	-88,4
245,904	-98,64
246,114	272,04
246,324	48,81
246,534	-198,99
246,744	-276,82
246,955	-155,99
247,165	403,11
247,375	128,68
247,585	-102,74
247,795	124,58
248,005	304,81
248,215	-158,03
248,425	-43,35
248,636	843,42
248,846	130,73
249,056	-297,3
249,266	-285,01
249,476	257,7
249,686	245,41
249,896	-295,25
250,106	-244,05
250,316	108,2
250,526	568,99
250,736	-305,49
250,946	22,19
251,156	487,08
251,366	188,07
251,576	-166,23
251,786	-137,56
251,996	-4,44
252,206	-8,53
252,416	-237,91
252,626	-217,43
252,836	24,23
253,046	226,98
253,256	-180,56
253,466	-133,46
253,676	210,6
253,885	280,23
254,095	-211,28
254,305	-100,69
254,515	216,74
254,725	149,16
254,935	-305,49
255,145	-178,51
255,355	382,63
255,564	145,06
255,774	-264,53
255,984	75,43
256,194	161,45
256,404	192,17
256,614	-184,66
256,823	-31,06
257,033	151,21
257,243	302,76
257,453	-297,3
257,662	-254,29
257,872	413,35
258,082	188,07
258,292	-182,61
258,501	-125,27
258,711	816,8
258,921	472,74
259,131	-313,68
259,34	-221,52
259,55	136,87
259,76	38,57
259,969	-168,27
260,179	-203,09
260,389	198,31
260,598	399,01
260,808	-61,78
261,018	-125,27
261,227	415,4
261,437	54,95
261,647	-182,61
261,856	-280,91
262,066	370,34
262,275	513,7
262,485	-227,67
262,694	-123,22
262,904	292,52
263,114	392,87
263,323	-258,39
263,533	-231,76
263,742	151,21
263,952	222,89
264,161	-274,77
264,371	-166,23
264,58	155,3
264,79	75,43
264,999	-117,08
265,209	-192,85
265,418	329,38
265,628	181,93
265,837	-223,57
266,047	-252,24
266,256	511,65
266,466	116,39
266,675	-289,1
266,884	-242
267,094	200,36
267,303	429,73
267,513	-125,27
267,722	77,48
267,931	335,53
268,141	91,82
268,35	-246,1
268,559	-151,89
268,769	130,73
268,978	-141,65
269,187	-242
269,397	-221,52
269,606	-115,03
269,815	108,2
270,025	-184,66
270,234	-129,36
270,443	-53,59
270,653	71,34
270,862	-289,1
271,071	-209,23
271,28	120,49
271,49	208,55
271,699	-143,7
271,908	-92,5
272,117	192,17
272,327	143,02
272,536	-270,67
272,745	-192,85
272,954	63,15
273,163	278,18
273,372	169,64
273,582	-227,67
273,791	157,35
274	77,48
274,209	-22,87
274,418	-31,06
274,627	327,33
274,836	91,82
275,046	71,34
275,255	-143,7
275,464	77,48
275,673	-22,87
275,882	108,2
276,091	-33,11
276,3	284,33
276,509	169,64
276,718	-10,58
276,927	-72,02
277,136	224,94
277,345	165,54
277,554	97,96
277,763	79,53
277,972	200,36
278,181	212,65
278,39	-4,44
278,599	-53,59
278,808	102,06
279,017	229,03
279,226	-119,12
279,435	30,38
279,644	134,82
279,853	200,36
280,062	341,67
280,271	-92,5
280,48	69,29
280,688	65,19
280,897	61,1
281,106	24,23
281,315	-76,12
281,524	175,78
281,733	126,63
281,942	89,77
282,151	163,5
282,359	245,41
282,568	-61,78
282,777	-26,96
282,986	120,49
283,195	183,98
283,403	91,82
283,612	-53,59
283,821	87,72
284,03	-14,68
284,238	122,54
284,447	28,33
284,656	69,29
284,865	220,84
285,073	-59,73
285,282	-39,25
285,491	106,15
285,699	-100,69
285,908	9,9
286,117	-33,11
286,325	159,4
286,534	356,01
286,743	-53,59
286,951	7,85
287,16	339,62
287,369	151,21
287,577	46,76
287,786	-51,54
287,995	63,15
288,203	-67,92
288,412	95,91
288,62	-55,64
288,829	95,91
289,037	32,43
289,246	-35,16
289,455	-41,3
289,663	97,96
289,872	290,47
290,08	118,44
290,289	136,87
290,497	-10,58
290,706	257,7
290,914	-121,17
291,123	18,09
291,331	145,06
291,54	300,71
291,748	226,98
291,957	112,3
292,165	106,15
292,373	-100,69
292,582	-49,49
292,79	83,63
292,999	85,67
293,207	200,36
293,415	28,33
293,624	-53,59
293,832	153,26
294,041	177,83
294,249	52,91
294,457	-145,75
294,666	235,18
294,874	-6,49
295,082	61,1
295,291	38,57
295,499	63,15
295,707	159,4
295,915	48,81
296,124	59,05
296,332	124,58
296,54	157,35
296,749	192,17
296,957	-45,4
297,165	71,34
297,373	48,81
297,581	77,48
297,79	30,38
297,998	-51,54
298,206	-4,44
298,414	122,54
298,622	102,06
298,831	265,89
299,039	36,52
299,247	216,74
299,455	67,24
299,663	339,62
299,871	59,05
300,08	-24,92
300,288	13,99
300,496	118,44
300,704	79,53
300,912	34,47
301,12	5,8
301,328	190,12
301,536	126,63
301,744	-102,74
301,952	-82,26
302,16	-57,68
302,368	20,14
302,576	46,76
302,784	235,18
302,992	-69,97
303,2	163,5
303,408	-18,77
303,616	-39,25
303,824	267,94
304,032	384,68
304,24	292,52
304,448	22,19
304,656	52,91
304,864	396,96
305,072	175,78
305,28	54,95
305,488	179,88
305,696	210,6
305,904	54,95
306,111	-178,51
306,319	114,34
306,527	190,12
306,735	145,06
306,943	81,58
307,151	235,18
307,359	-26,96
307,566	161,45
307,774	161,45
307,982	292,52
308,19	-67,92
308,398	-59,73
308,605	5,8
308,813	7,85
309,021	165,54
309,229	128,68
309,436	-18,77
309,644	323,24
309,852	388,77
310,06	161,45
310,267	-24,92
310,475	124,58
310,683	255,65
310,89	102,06
311,098	161,45
311,306	145,06
311,513	313
311,721	-4,44
311,929	32,43
312,136	89,77
312,344	65,19
312,552	159,4
312,759	-6,49
312,967	278,18
313,174	276,13
313,382	110,25
313,589	120,49
313,797	276,13
314,005	247,46
314,212	24,23
314,42	-90,45
314,627	122,54
314,835	102,06
315,042	44,71
315,25	-174,42
315,457	34,47
315,665	-102,74
315,872	167,59
316,08	-22,87
316,287	71,34
316,495	489,12
316,702	48,81
316,909	-84,31
317,117	237,22
317,324	183,98
317,532	292,52
317,739	-86,36
317,946	63,15
318,154	-12,63
318,361	9,9
318,569	167,59
318,776	91,82
318,983	-57,68
319,191	177,83
319,398	75,43
319,605	83,63
319,813	259,75
320,02	-149,84
320,227	233,13
320,434	321,19
320,642	194,22
320,849	11,95
321,056	89,77
321,264	218,79
321,471	188,07
321,678	120,49
321,885	59,05
322,092	296,61
322,3	247,46
322,507	7,85
322,714	87,72
322,921	104,11
323,128	67,24
323,336	89,77
323,543	108,2
323,75	317,09
323,957	306,85
324,164	210,6
324,371	206,5
324,578	16,04
324,786	454,31
324,993	149,16
325,2	212,65
325,407	30,38
325,614	288,42
325,821	349,86
326,028	356,01
326,235	411,3
326,442	374,44
326,649	224,94
326,856	272,04
327,063	192,17
327,27	413,35
327,477	261,8
327,684	79,53
327,891	267,94
328,098	460,45
328,305	372,39
328,512	196,26
328,719	542,37
328,926	683,68
329,133	263,85
329,34	587,43
329,546	698,02
329,753	564,9
329,96	276,13
330,167	571,04
330,374	599,71
330,581	761,5
330,788	280,23
330,995	517,79
331,201	652,96
331,408	603,81
331,615	546,47
331,822	456,36
332,029	655,01
332,235	716,45
332,442	620,19
332,649	655,01
332,856	614,05
333,062	691,87
333,269	655,01
333,476	616,1
333,683	675,49
333,889	994,97
334,096	745,12
334,303	816,8
334,509	951,96
334,716	1011,36
334,923	925,34
335,129	861,85
335,336	1097,37
335,543	1156,76
335,749	769,69
335,956	896,67
336,163	767,65
336,369	1023,64
336,576	872,09
336,782	945,82
336,989	894,62
337,196	1199,77
337,402	1083,03
337,609	874,14
337,815	1279,64
338,022	1349,27
338,228	1347,22
338,435	1603,22
338,641	1644,18
338,848	1566,35
339,054	1502,87
339,261	1341,08
339,467	1398,42
339,674	1840,78
339,88	1642,13
340,087	1500,82
340,293	1740,43
340,5	1775,25
340,706	1740,43
340,912	1447,57
341,119	1631,89
341,325	1783,44
341,532	1752,72
341,738	1726,1
341,944	2129,55
342,151	2055,82
342,357	1984,14
342,563	2041,48
342,77	2168,46
342,976	2061,96
343,182	2256,52
343,389	1898,13
343,595	1986,19
343,801	1857,17
344,007	2025,1
344,214	1672,85
344,42	2098,83
344,626	2119,31
344,832	2141,83
345,039	2156,17
345,245	2549,38
345,451	2328,2
345,657	2489,99
345,864	2248,33
346,07	2547,33
346,276	2690,69
346,482	2674,31
346,688	2668,16
346,894	2657,92
347,1	2717,31
347,307	2586,24
347,513	2875,01
347,719	2811,52
347,925	2844,29
348,131	2705,03
348,337	2946,69
348,543	2963,07
348,749	2780,8
348,955	3010,17
349,161	2748,03
349,367	3188,35
349,573	3493,49
349,779	3397,24
349,985	3495,54
350,191	3819,12
350,397	3694,19
350,603	3683,95
350,809	3440,25
351,015	3802,74
351,221	3487,35
351,427	3667,57
351,633	3634,8
351,839	3708,53
352,045	3569,27
352,251	3585,65
352,457	3430,01
352,663	3942
352,869	3970,67
353,075	4103,79
353,28	4085,36
353,486	4660,84
353,692	4507,24
353,898	4402,79
354,104	4490,85
354,31	4769,38
354,515	4767,33
354,721	4744,8
354,927	4503,14
355,133	4779,62
355,339	4519,53
355,544	4316,78
355,75	4359,78
355,956	4453,99
356,162	4290,15
356,367	3894,9
356,573	3919,47
356,779	3855,98
356,984	4046,44
357,19	4036,21
357,396	3669,62
357,602	4189,8
357,807	3921,52
358,013	3436,15
358,218	3442,29
358,424	3954,29
358,63	4187,75
358,835	4699,75
359,041	4830,82
359,247	5318,23
359,452	5371,48
359,658	5377,62
359,863	5168,73
360,069	5228,12
360,274	5090,91
360,48	4914,78
360,685	4814,43
360,891	5195,36
361,097	4843,1
361,302	4933,22
361,508	5295,71
361,713	5344,86
361,918	5844,56
362,124	5840,47
362,329	6012,49
362,535	6098,51
362,74	5867,09
362,946	5924,43
363,151	5887,57
363,357	6145,61
363,562	6157,9
363,767	6303,31
363,973	6549,06
364,178	6579,78
364,383	6522,44
364,589	6741,57
364,794	7005,76
365	7513,66
365,205	7796,28
365,41	7824,95
365,615	8113,71
365,821	8169,01
366,026	8148,53
366,231	8033,84
366,437	8291,88
366,642	7888,43
366,847	8171,05
367,052	7919,15
367,258	7894,58
367,463	7810,61
367,668	7609,91
367,873	7732,79
368,078	7685,69
368,284	7478,84
368,489	7767,6
368,694	8209,97
368,899	8076,85
369,104	8719,91
369,309	8662,57
369,515	8402,47
369,72	8357,42
369,925	8109,61
370,13	8468,01
370,335	7943,73
370,54	8029,74
370,745	8410,67
370,95	8377,9
371,155	8474,15
371,36	8146,48
371,565	8185,39
371,77	7876,15
371,975	7319,1
372,18	7501,37
372,385	7894,58
372,59	7470,65
372,795	7155,26
373	6665,8
373,205	6764,1
373,41	6862,4
373,615	6858,31
373,82	6499,91
374,025	7024,19
374,23	6573,64
374,435	6551,11
374,64	7083,58
374,845	7728,69
375,05	8080,94
375,254	7984,69
375,459	7949,87
375,664	7947,83
375,869	7980,59
376,074	8001,07
376,279	8085,04
376,483	8549,93
376,688	8762,92
376,893	9088,54
377,098	9381,4
377,303	9917,97
377,507	10133,01
377,712	10028,56
377,917	9893,4
378,122	9864,72
378,326	9225,76
378,531	8637,99
378,736	8308,27
378,94	8181,29
379,145	8111,66
379,35	8093,23
379,554	8064,56
379,759	8447,53
379,964	8642,09
380,168	8713,77
380,373	8996,39
380,578	9078,3
380,782	9205,28
380,987	8275,5
381,191	7560,76
381,396	7253,56
381,601	7122,49
381,805	6614,6
382,01	6116,94
382,214	6016,59
382,419	6000,21
382,623	5379,67
382,828	5471,83
383,032	5570,13
383,237	5430,87
383,441	5797,46
383,646	6745,67
383,85	6948,42
384,055	7560,76
384,259	7767,6
384,464	8029,74
384,668	7908,91
384,872	7743,03
385,077	7564,86
385,281	7499,32
385,486	7452,22
385,69	7867,95
385,894	7978,54
386,099	8173,1
386,303	8097,33
386,507	8513,06
386,712	8058,42
386,916	7849,52
387,12	8031,79
387,325	8422,95
387,529	8220,21
387,733	7960,11
387,937	8433,19
388,142	8033,84
388,346	8468,01
388,55	8703,53
388,754	9385,5
388,959	9440,79
389,163	9956,88
389,367	10003,99
389,571	10010,13
389,775	10552,84
389,98	10427,92
390,184	10425,87
390,388	11240,96
390,592	10901
390,796	10950,15
391	11075,07
391,204	10753,54
391,409	10323,47
391,613	9721,37
391,817	9096,74
392,021	8615,46
392,225	7628,34
392,429	6657,61
392,633	5680,72
392,837	5607
393,041	5471,83
393,245	6166,09
393,449	6755,91
393,653	7730,74
393,857	8762,92
394,061	9649,69
394,265	10046,99
394,469	10948,1
394,673	11056,64
394,877	11496,96
395,081	11240,96
395,285	10776,07
395,489	9821,72
395,693	8902,18
395,896	7827
396,1	7120,45
396,304	6962,75
396,508	6690,37
396,712	7325,24
396,916	8474,15
397,12	10020,37
397,323	10825,22
397,527	12191,22
397,731	13309,41
397,935	13155,81
398,139	14044,63
398,342	14177,75
398,546	14443,98
398,75	14775,75
398,954	14970,31
399,157	14728,65
399,361	15138,24
399,565	14962,12
399,769	15271,36
399,972	15205,83
400,176	15852,98
400,38	15480,25
400,583	15572,41
400,787	16567,73
400,991	16139,7
401,194	16272,82
401,398	16651,69
401,601	16369,07
401,805	16151,99
402,009	16719,28
402,212	16039,35
402,416	16401,84
402,619	16264,63
402,823	16414,13
403,026	15986,1
403,23	15633,85
403,433	16836,01
403,637	16246,19
403,841	16227,76
404,044	16655,79
404,247	16729,52
404,451	16989,61
404,654	16543,15
404,858	16580,01
405,061	16387,5
405,265	16164,28
405,468	16324,02
405,672	15461,82
405,875	15451,58
406,078	15902,14
406,282	15648,19
406,485	15652,28
406,689	16856,49
406,892	16995,75
407,095	15930,81
407,299	15717,82
407,502	16786,86
407,705	16842,15
407,909	17087,91
408,112	18003,35
408,315	18066,84
408,518	18015,64
408,722	16752,04
408,925	16559,53
409,128	16960,94
409,331	16694,7
409,535	16297,39
409,738	15803,83
409,941	16782,76
410,144	16498,09
410,347	17446,3
410,551	17585,57
410,754	18247,06
410,957	18396,56
411,16	18263,44
411,363	18271,64
411,566	18838,92
411,769	18851,21
411,973	18501,01
412,176	18027,93
412,379	18847,12
412,582	18578,83
412,785	18040,22
412,988	18509,2
413,191	18271,64
413,394	18355,6
413,597	18288,02
413,8	18607,5
414,003	19156,36
414,206	18269,59
414,409	18613,65
414,612	18023,83
414,815	18521,49
415,018	18664,85
415,221	18677,13
415,424	18707,85
415,627	19406,21
415,83	19217,8
416,033	18828,68
416,235	19064,2
416,438	19232,13
416,641	18369,94
416,844	18255,25
417,047	18212,24
417,25	17569,18
417,453	18371,99
417,655	17372,58
417,858	18220,44
418,061	17655,2
418,264	17769,88
418,467	17821,08
418,669	17798,56
418,872	18169,24
419,075	17974,68
419,278	17769,88
419,48	18177,43
419,683	18568,59
419,886	18292,12
420,089	19316,1
420,291	18523,54
420,494	19492,23
420,697	18969,99
420,899	19154,31
421,102	17917,34
421,305	18894,22
421,507	17923,48
421,71	18230,68
421,912	18093,46
422,115	17841,56
422,318	17409,44
422,52	17788,32
422,723	18222,48
422,925	18544,02
423,128	18546,06
423,33	18163,09
423,533	17784,22
423,735	18546,06
423,938	18421,14
424,14	18410,9
424,343	18081,17
424,545	18763,15
424,748	18032,02
424,95	17794,46
425,153	19035,53
425,355	18408,85
425,558	19260,8
425,76	18013,59
425,962	18003,35
426,165	17190,31
426,367	18769,29
426,57	18245,01
426,772	17425,82
426,974	17845,66
427,177	17479,07
427,379	17649,05
427,581	17948,06
427,784	18298,26
427,986	16750
428,188	17599,9
428,39	17667,49
428,593	16879,02
