Data from Fenster geöffnet_USB4F035431__0__13-30-39-586.txt Node

Date: Tue Feb 02 13:30:39 CET 2021
User: Praktikum
Spectrometer: USB4F03543
Trigger mode: 4
Integration Time (sec): 4,670000E-1
Scans to average: 1
Electric dark correction enabled: true
Nonlinearity correction enabled: false
Boxcar width: 0
XAxis mode: Wavelengths
Number of Pixels in Spectrum: 3648
>>>>>Begin Spectral Data<<<<<
179,969	-690,51
180,181	-690,51
180,394	-690,51
180,606	-741,71
180,819	-604,49
181,031	251,56
181,243	399,01
181,456	-170,32
181,668	-201,04
181,88	269,99
182,093	44,71
182,305	-352,59
182,518	-211,28
182,73	290,47
182,942	188,07
183,155	-334,16
183,367	-174,42
183,579	155,3
183,791	269,99
184,004	-158,03
184,216	-242
184,428	114,34
184,641	151,21
184,853	-297,3
185,065	-194,9
185,277	241,32
185,49	259,75
185,702	-242
185,914	-207,19
186,126	87,72
186,338	212,65
186,551	-285,01
186,763	-149,84
186,975	7,85
187,187	167,59
187,399	-295,25
187,612	-184,66
187,824	196,26
188,036	235,18
188,248	-117,08
188,46	-282,96
188,672	245,41
188,885	38,57
189,097	-145,75
189,309	-289,1
189,521	245,41
189,733	175,78
189,945	-186,71
190,157	-127,32
190,369	46,76
190,581	114,34
190,794	-141,65
191,006	-205,14
191,218	112,3
191,43	284,33
191,642	-188,75
191,854	-196,95
192,066	401,06
192,278	183,98
192,49	-311,63
192,702	-149,84
192,914	243,37
193,126	200,36
193,338	-147,8
193,55	-192,85
193,762	251,56
193,974	-92,5
194,186	-250,19
194,398	-174,42
194,61	128,68
194,822	269,99
195,034	-198,99
195,246	79,53
195,457	231,08
195,669	472,74
195,881	-168,27
196,093	-317,78
196,305	247,46
196,517	-196,95
196,729	-127,32
196,941	-219,47
197,153	351,91
197,365	534,18
197,576	-299,34
197,788	-244,05
198	302,76
198,212	534,18
198,424	-254,29
198,636	-190,8
198,847	-10,58
199,059	136,87
199,271	-321,87
199,483	-90,45
199,695	155,3
199,906	249,51
200,118	-196,95
200,33	-160,08
200,542	906,91
200,753	67,24
200,965	-213,33
201,177	-180,56
201,389	243,37
201,6	-149,84
201,812	-127,32
202,024	-186,71
202,235	48,81
202,447	409,25
202,659	-194,9
202,871	-166,23
203,082	77,48
203,294	-8,53
203,506	-260,43
203,717	-166,23
203,929	220,84
204,141	59,05
204,352	-168,27
204,564	-211,28
204,775	130,73
204,987	464,55
205,199	-211,28
205,41	-90,45
205,622	290,47
205,833	124,58
206,045	-78,16
206,257	-192,85
206,468	24,23
206,68	20,14
206,891	-102,74
207,103	-166,23
207,314	-125,27
207,526	157,35
207,737	-239,95
207,949	-35,16
208,16	171,69
208,372	143,02
208,583	-221,52
208,795	-203,09
209,006	116,39
209,218	192,17
209,429	-219,47
209,641	-209,23
209,852	73,39
210,064	282,28
210,275	-227,67
210,487	-137,56
210,698	360,1
210,909	374,44
211,121	-225,62
211,332	-72,02
211,544	239,27
211,755	394,92
211,966	-35,16
212,178	-217,43
212,389	646,82
212,6	151,21
212,812	102,06
213,023	-127,32
213,234	294,57
213,446	243,37
213,657	-254,29
213,868	-172,37
214,08	540,32
214,291	261,8
214,502	-198,99
214,714	-246,1
214,925	167,59
215,136	118,44
215,347	-213,33
215,559	-211,28
215,77	-41,3
215,981	370,34
216,192	-229,71
216,404	-172,37
216,615	327,33
216,826	313
217,037	-184,66
217,249	-164,18
217,46	554,66
217,671	243,37
217,882	-198,99
218,093	-211,28
218,304	212,65
218,516	339,62
218,727	-385,36
218,938	-166,23
219,149	534,18
219,36	220,84
219,571	-299,34
219,782	-231,76
219,993	468,64
220,205	30,38
220,416	-80,21
220,627	-117,08
220,838	300,71
221,049	679,58
221,26	-174,42
221,471	-317,78
221,682	247,46
221,893	417,44
222,104	-213,33
222,315	-213,33
222,526	-12,63
222,737	118,44
222,948	-332,11
223,159	-106,84
223,37	188,07
223,581	122,54
223,792	-182,61
224,003	-158,03
224,214	30,38
224,425	229,03
224,636	-293,2
224,847	-84,31
225,058	208,55
225,269	269,99
225,48	-211,28
225,691	-295,25
225,902	304,81
226,112	102,06
226,323	-311,63
226,534	-209,23
226,745	81,58
226,956	-49,49
227,167	-182,61
227,378	-119,12
227,589	75,43
227,799	538,27
228,01	-184,66
228,221	-305,49
228,432	50,86
228,643	-20,82
228,853	-198,99
229,064	-219,47
229,275	249,51
229,486	63,15
229,697	-233,81
229,907	-211,28
230,118	237,22
230,329	59,05
230,54	-237,91
230,75	-100,69
230,961	368,29
231,172	110,25
231,383	-131,41
231,593	-209,23
231,804	349,86
232,015	210,6
232,225	-274,77
232,436	-215,38
232,647	358,05
232,857	300,71
233,068	-217,43
233,279	-135,51
233,489	118,44
233,7	145,06
233,91	-213,33
234,121	-160,08
234,332	143,02
234,542	239,27
234,753	-250,19
234,964	-127,32
235,174	145,06
235,385	300,71
235,595	-250,19
235,806	-90,45
236,016	57
236,227	57
236,437	-278,87
236,648	-221,52
236,858	206,5
237,069	48,81
237,279	-184,66
237,49	-217,43
237,7	175,78
237,911	173,74
238,121	-145,75
238,332	-196,95
238,542	296,61
238,753	132,78
238,963	-272,72
239,174	-153,94
239,384	97,96
239,595	188,07
239,805	-198,99
240,015	-201,04
240,226	267,94
240,436	261,8
240,647	-299,34
240,857	-76,12
241,067	204,46
241,278	868
241,488	-305,49
241,698	11,95
241,909	81,58
242,119	212,65
242,329	-153,94
242,54	-174,42
242,75	151,21
242,96	-35,16
243,171	20,14
243,381	-180,56
243,591	-18,77
243,801	360,1
244,012	104,11
244,222	-192,85
244,432	-133,46
244,642	26,28
244,853	-198,99
245,063	-213,33
245,273	255,65
245,483	120,49
245,694	-92,5
245,904	-74,07
246,114	302,76
246,324	1,71
246,534	-225,62
246,744	-196,95
246,955	-147,8
247,165	421,54
247,375	190,12
247,585	-215,38
247,795	192,17
248,005	233,13
248,215	-110,93
248,425	-26,96
248,636	646,82
248,846	114,34
249,056	-166,23
249,266	-225,62
249,476	245,41
249,686	200,36
249,896	-258,39
250,106	-198,99
250,316	110,25
250,526	587,43
250,736	-303,44
250,946	95,91
251,156	433,83
251,366	81,58
251,576	-201,04
251,786	-72,02
251,996	-72,02
252,206	71,34
252,416	-143,7
252,626	-268,63
252,836	36,52
253,046	241,32
253,256	-158,03
253,466	-188,75
253,676	171,69
253,885	378,53
254,095	-198,99
254,305	-84,31
254,515	212,65
254,725	202,41
254,935	-145,75
255,145	-145,75
255,355	296,61
255,564	77,48
255,774	-139,6
255,984	130,73
256,194	220,84
256,404	188,07
256,614	-205,14
256,823	11,95
257,033	165,54
257,243	362,15
257,453	-248,15
257,662	-143,7
257,872	337,57
258,082	175,78
258,292	-192,85
258,501	-49,49
258,711	794,27
258,921	403,11
259,131	-289,1
259,34	-166,23
259,55	147,11
259,76	71,34
259,969	-211,28
260,179	-174,42
260,389	192,17
260,598	415,4
260,808	-94,55
261,018	-133,46
261,227	462,5
261,437	32,43
261,647	-149,84
261,856	-198,99
262,066	284,33
262,275	521,89
262,485	-215,38
262,694	-106,84
262,904	186,02
263,114	315,05
263,323	-180,56
263,533	-170,32
263,742	97,96
263,952	179,88
264,161	-223,57
264,371	-205,14
264,58	130,73
264,79	30,38
264,999	-76,12
265,209	-174,42
265,418	341,67
265,628	218,79
265,837	-196,95
266,047	-139,6
266,256	452,26
266,466	-22,87
266,675	-219,47
266,884	-125,27
267,094	257,7
267,303	476,84
267,513	-141,65
267,722	46,76
267,931	292,52
268,141	102,06
268,35	-205,14
268,559	-188,75
268,769	93,87
268,978	-45,4
269,187	-229,71
269,397	-248,15
269,606	-49,49
269,815	73,39
270,025	-192,85
270,234	-133,46
270,443	-110,93
270,653	100,01
270,862	-256,34
271,071	-229,71
271,28	93,87
271,49	132,78
271,699	-139,6
271,908	-121,17
272,117	108,2
272,327	100,01
272,536	-237,91
272,745	-215,38
272,954	40,62
273,163	253,61
273,372	138,92
273,582	-125,27
273,791	130,73
274	102,06
274,209	-35,16
274,418	32,43
274,627	374,44
274,836	100,01
275,046	130,73
275,255	-90,45
275,464	28,33
275,673	52,91
275,882	157,35
276,091	-10,58
276,3	179,88
276,509	143,02
276,718	3,75
276,927	-57,68
277,136	194,22
277,345	122,54
277,554	63,15
277,763	79,53
277,972	229,03
278,181	235,18
278,39	-2,39
278,599	87,72
278,808	85,67
279,017	243,37
279,226	-143,7
279,435	97,96
279,644	157,35
279,853	216,74
280,062	372,39
280,271	-53,59
280,48	57
280,688	114,34
280,897	91,82
281,106	-80,21
281,315	-6,49
281,524	143,02
281,733	110,25
281,942	138,92
282,151	208,55
282,359	351,91
282,568	-78,16
282,777	36,52
282,986	95,91
283,195	169,64
283,403	153,26
283,612	-10,58
283,821	97,96
284,03	-2,39
284,238	155,3
284,447	57
284,656	104,11
284,865	237,22
285,073	-35,16
285,282	7,85
285,491	161,45
285,699	-98,64
285,908	138,92
286,117	24,23
286,325	190,12
286,534	462,5
286,743	-0,34
286,951	52,91
287,16	269,99
287,369	75,43
287,577	16,04
287,786	50,86
287,995	87,72
288,203	-2,39
288,412	145,06
288,62	24,23
288,829	128,68
289,037	102,06
289,246	114,34
289,455	-67,92
289,663	143,02
289,872	337,57
290,08	36,52
290,289	136,87
290,497	-2,39
290,706	224,94
290,914	-166,23
291,123	-20,82
291,331	69,29
291,54	335,53
291,748	134,82
291,957	145,06
292,165	122,54
292,373	-80,21
292,582	87,72
292,79	65,19
292,999	138,92
293,207	214,7
293,415	24,23
293,624	-106,84
293,832	110,25
294,041	132,78
294,249	13,99
294,457	-80,21
294,666	282,28
294,874	-61,78
295,082	-8,53
295,291	67,24
295,499	69,29
295,707	208,55
295,915	110,25
296,124	79,53
296,332	200,36
296,54	106,15
296,749	206,5
296,957	38,57
297,165	138,92
297,373	157,35
297,581	52,91
297,79	11,95
297,998	-12,63
298,206	-12,63
298,414	124,58
298,622	13,99
298,831	269,99
299,039	63,15
299,247	52,91
299,455	124,58
299,663	407,2
299,871	89,77
300,08	-6,49
300,288	71,34
300,496	120,49
300,704	114,34
300,912	20,14
301,12	18,09
301,328	112,3
301,536	93,87
301,744	-74,07
301,952	65,19
302,16	-49,49
302,368	110,25
302,576	120,49
302,784	212,65
302,992	-51,54
303,2	167,59
303,408	16,04
303,616	81,58
303,824	356,01
304,032	300,71
304,24	269,99
304,448	175,78
304,656	194,22
304,864	482,98
305,072	251,56
305,28	130,73
305,488	276,13
305,696	282,28
305,904	181,93
306,111	-18,77
306,319	233,13
306,527	272,04
306,735	343,72
306,943	214,7
307,151	370,34
307,359	169,64
307,566	245,41
307,774	446,12
307,982	487,08
308,19	255,65
308,398	210,6
308,605	276,13
308,813	202,41
309,021	456,36
309,229	392,87
309,436	220,84
309,644	564,9
309,852	626,34
310,06	571,04
310,267	378,53
310,475	681,63
310,683	673,44
310,89	650,91
311,098	734,88
311,306	794,27
311,513	982,68
311,721	661,15
311,929	800,41
312,136	900,76
312,344	872,09
312,552	1029,79
312,759	808,61
312,967	1261,21
313,174	1201,82
313,382	1064,6
313,589	1035,93
313,797	1257,11
314,005	1310,36
314,212	1148,57
314,42	964,25
314,627	1322,65
314,835	1128,09
315,042	1316,5
315,25	1072,79
315,457	1167
315,665	1033,88
315,872	1339,03
316,08	1334,93
316,287	1375,89
316,495	1990,28
316,702	1592,98
316,909	1693,33
317,117	2156,17
317,324	2109,07
317,532	2219,66
317,739	1963,66
317,946	2068,11
318,154	2033,29
318,361	2154,12
318,569	2395,78
318,776	2293,38
318,983	2127,5
319,191	2500,23
319,398	2473,6
319,605	2621,06
319,813	2836,1
320,02	2576
320,227	3055,23
320,434	3321,46
320,642	3047,04
320,849	2938,49
321,056	3038,84
321,264	3038,84
321,471	3118,72
321,678	2899,58
321,885	2813,57
322,092	3079,8
322,3	2934,4
322,507	2686,59
322,714	2795,14
322,921	2909,82
323,128	3012,22
323,336	3096,19
323,543	3417,72
323,75	3724,91
323,957	3829,36
324,164	4021,87
324,371	3903,09
324,578	3792,5
324,786	4093,55
324,993	4021,87
325,2	4318,82
325,407	4365,93
325,614	4787,81
325,821	5273,18
326,028	5363,29
326,235	5656,15
326,442	5420,63
326,649	5412,44
326,856	5262,94
327,063	5324,38
327,27	5160,54
327,477	5168,73
327,684	4845,15
327,891	4980,32
328,098	5183,07
328,305	5488,21
328,512	5187,16
328,719	6207,05
328,926	6149,71
329,133	6356,55
329,34	6848,07
329,546	6872,64
329,753	6518,34
329,96	6575,69
330,167	6248,01
330,374	6110,8
330,581	6030,93
330,788	5647,96
330,995	5891,66
331,201	6004,3
331,408	5856,85
331,615	6084,17
331,822	5871,19
332,029	6217,29
332,235	6420,04
332,442	6137,42
332,649	5795,41
332,856	6209,1
333,062	6069,84
333,269	5910,1
333,476	5760,59
333,683	6168,14
333,889	6258,25
334,096	6356,55
334,303	6250,06
334,509	6458,95
334,716	6411,85
334,923	6522,44
335,129	6493,77
335,336	6635,08
335,543	6223,44
335,749	6010,45
335,956	5903,95
336,163	5623,38
336,369	5627,48
336,576	5746,26
336,782	5738,07
336,989	5725,78
337,196	6041,17
337,402	6157,9
337,609	6131,28
337,815	6397,51
338,022	6743,62
338,228	6573,64
338,435	6794,82
338,641	7231,04
338,848	7138,88
339,054	7052,86
339,261	6946,37
339,467	7151,17
339,674	7763,51
339,88	7521,85
340,087	7439,93
340,293	7341,63
340,5	7179,84
340,706	7005,76
340,912	6768,2
341,119	6915,65
341,325	7069,25
341,532	7282,24
341,738	7253,56
341,944	7831,09
342,151	7577,14
342,357	7519,8
342,563	7761,46
342,77	7611,96
342,976	7378,49
343,182	7300,67
343,389	7052,86
343,595	6659,65
343,801	6231,63
344,007	6182,48
344,214	5805,65
344,42	6626,89
344,626	6846,02
344,832	7011,9
345,039	7255,61
345,245	7511,61
345,451	7272
345,657	7380,54
345,864	7136,83
346,07	7452,22
346,276	7337,53
346,482	7708,21
346,688	7517,75
346,894	7294,52
347,1	7460,41
347,307	7376,44
347,513	7456,31
347,719	7415,35
347,925	7403,07
348,131	7353,91
348,337	7482,94
348,543	7360,06
348,749	7149,12
348,955	7577,14
349,161	7212,6
349,367	7972,4
349,573	8314,41
349,779	8291,88
349,985	8545,83
350,191	8846,88
350,397	8900,13
350,603	8588,84
350,809	8119,85
351,015	8453,67
351,221	7982,64
351,427	8388,14
351,633	8050,22
351,839	8425
352,045	8121,9
352,251	8113,71
352,457	7913,01
352,663	8437,29
352,869	8445,48
353,075	8803,88
353,28	8834,6
353,486	9367,07
353,692	9367,07
353,898	9160,22
354,104	9453,08
354,31	9485,85
354,515	9371,16
354,721	9477,66
354,927	9068,06
355,133	9338,4
355,339	8803,88
355,544	8662,57
355,75	8449,58
355,956	8416,81
356,162	8269,36
356,367	7745,08
356,573	7548,47
356,779	7255,61
356,984	7306,81
357,19	7214,65
357,396	6907,46
357,602	7468,6
357,807	6739,52
358,013	6563,4
358,218	6405,7
358,424	6911,55
358,63	7321,15
358,835	7917,11
359,041	8425
359,247	9336,35
359,452	9547,29
359,658	9274,91
359,863	9125,41
360,069	9270,81
360,274	8603,18
360,48	8425
360,685	8396,33
360,891	8480,3
361,097	8121,9
361,302	8390,19
361,508	8681
361,713	8597,03
361,918	9416,22
362,124	9461,27
362,329	9623,06
362,535	9907,73
362,74	9315,87
362,946	9750,04
363,151	9391,64
363,357	9672,22
363,562	9745,94
363,767	9666,07
363,973	10077,71
364,178	9752,09
364,383	9864,72
364,589	10155,54
364,794	10239,5
365	11161,09
365,205	11664,89
365,41	11607,55
365,615	11912,69
365,821	11914,74
366,026	12451,31
366,231	11783,67
366,437	11984,37
366,642	11654,65
366,847	11851,25
367,052	11640,31
367,258	11490,81
367,463	11552,25
367,668	11230,72
367,873	11122,18
368,078	11116,03
368,284	11048,45
368,489	11490,81
368,694	11888,12
368,899	11699,7
369,104	12535,28
369,309	12252,66
369,515	12269,04
369,72	12031,48
369,925	11668,98
370,13	11779,57
370,335	11542,01
370,54	11642,36
370,745	11785,72
370,95	11523,58
371,155	11881,97
371,36	11320,83
371,565	11568,63
371,77	11050,5
371,975	10245,65
372,18	10391,05
372,385	10636,81
372,59	10354,19
372,795	9866,77
373	9285,15
373,205	9334,3
373,41	9250,33
373,615	9207,33
373,82	9098,78
374,025	9565,72
374,23	9014,82
374,435	9207,33
374,64	9590,3
374,845	10253,84
375,05	10415,63
375,254	10649,1
375,459	10702,34
375,664	11009,54
375,869	10489,35
376,074	11005,44
376,279	11027,97
376,483	11443,71
376,688	11550,2
376,893	12205,55
377,098	12664,3
377,303	13073,89
377,507	13346,27
377,712	13549,02
377,917	13184,48
378,122	13161,95
378,326	12393,97
378,531	11247,1
378,736	11214,34
378,94	10935,81
379,145	10722,82
379,35	10702,34
379,554	10896,9
379,759	11052,55
379,964	11380,22
380,168	11582,97
380,373	11496,96
380,578	11894,26
380,782	11613,69
380,987	10882,56
381,191	9719,32
381,396	9483,8
381,601	9100,83
381,805	8537,64
382,01	7773,75
382,214	7779,89
382,419	7411,26
382,623	7022,14
382,828	7018,05
383,032	7200,32
383,237	6954,56
383,441	7513,66
383,646	8447,53
383,85	8875,56
384,055	9596,44
384,259	9879,06
384,464	10008,08
384,668	10280,46
384,872	9920,02
385,077	9709,08
385,281	9467,42
385,486	9559,58
385,69	9801,24
385,894	10282,51
386,099	9907,73
386,303	10346
386,507	10573,32
386,712	10094,1
386,916	9846,29
387,12	9834
387,325	10348,04
387,529	10210,83
387,733	9854,48
387,937	10296,85
388,142	9950,74
388,346	10522,12
388,55	10851,85
388,754	11509,24
388,959	11693,56
389,163	11943,41
389,367	12344,81
389,571	12391,92
389,775	12633,58
389,98	12809,7
390,184	12748,26
390,388	13475,29
390,592	13207,01
390,796	13344,22
391	13125,09
391,204	13166,05
391,409	12408,3
391,613	11806,2
391,817	10960,39
392,021	10440,2
392,225	9104,93
392,429	7874,1
392,633	7253,56
392,837	6649,41
393,041	6798,91
393,245	7441,98
393,449	8005,17
393,653	9203,23
393,857	10292,75
394,061	11384,32
394,265	11957,75
394,469	12897,77
394,673	12729,83
394,877	13151,71
395,081	13301,22
395,285	12555,76
395,489	11324,93
395,693	10645
395,896	9192,99
396,1	8582,7
396,304	8551,98
396,508	7886,39
396,712	8594,98
396,916	9973,27
397,12	11697,66
397,323	12735,98
397,527	13981,14
397,731	15474,11
397,935	15658,43
398,139	16262,58
398,342	16819,63
398,546	16778,67
398,75	17223,08
398,954	17274,28
399,157	17034,66
399,361	17474,98
399,565	17395,11
399,769	17653,15
399,972	17452,45
400,176	18124,18
400,38	17864,09
400,583	18378,13
400,787	19203,46
400,991	18701,71
401,194	18634,13
401,398	19363,2
401,601	18816,4
401,805	18791,82
402,009	19477,89
402,212	18802,06
402,416	18920,84
402,619	18949,51
402,823	18582,93
403,026	18353,55
403,23	18013,59
403,433	19084,68
403,637	18085,27
403,841	18224,53
404,044	18969,99
404,247	18632,08
404,451	18670,99
404,654	18058,65
404,858	18576,78
405,061	18398,61
405,265	18443,67
405,468	18820,49
405,672	17692,06
405,875	17685,92
406,078	18079,13
406,282	18060,7
406,485	17616,29
406,689	19078,54
406,892	19203,46
407,095	17778,08
407,299	18408,85
407,502	18904,46
407,705	19182,98
407,909	19713,41
408,112	19959,16
408,315	20694,38
408,518	20401,52
408,722	19105,16
408,925	19017,1
409,128	19031,43
409,331	18759,05
409,535	18257,3
409,738	18519,44
409,941	19027,34
410,144	18722,19
410,347	19838,33
410,551	20024,7
410,754	20450,67
410,957	20749,68
411,16	20571,5
411,363	20981,1
411,566	21488,99
411,769	21532
411,973	20966,76
412,176	20526,45
412,379	21652,83
412,582	20940,14
412,785	20614,51
412,988	21222,76
413,191	20653,42
413,394	20659,57
413,597	20847,98
413,8	21124,46
414,003	21634,4
414,206	20727,15
414,409	21251,43
414,612	20458,87
414,815	21146,98
415,018	21353,83
415,221	21257,57
415,424	21445,99
415,627	21552,48
415,83	21695,84
416,033	21284,2
416,235	21732,7
416,438	21677,41
416,641	20667,76
416,844	20553,07
417,047	20125,05
417,25	20084,09
417,453	20391,28
417,655	19942,78
417,858	20751,73
418,061	20059,51
418,264	20321,65
418,467	20446,58
418,669	20063,61
418,872	20956,52
419,075	20544,88
419,278	20071,8
419,48	20678
419,683	20634,99
419,886	20684,14
420,089	22226,26
420,291	21525,86
420,494	22103,39
420,697	21501,28
420,899	21736,8
421,102	20469,11
421,305	21415,27
421,507	20665,71
421,71	20241,78
421,912	20460,91
422,115	20508,02
422,318	19692,93
422,52	19961,21
422,723	20254,07
422,925	21222,76
423,128	20442,48
423,33	20329,84
423,533	20016,51
423,735	20774,25
423,938	21050,73
424,14	20876,65
424,343	20065,66
424,545	21345,64
424,748	20356,47
424,95	20123
425,153	21253,48
425,355	20817,26
425,558	21941,6
425,76	20675,95
425,962	20147,58
426,165	19563,9
426,367	21300,58
