Data from GlÂ¸hbirne_USB4F035431__0__12-14-20-453.txt Node

Date: Tue Feb 02 12:14:20 CET 2021
User: Praktikum
Spectrometer: USB4F03543
Trigger mode: 4
Integration Time (sec): 1,000000E-1
Scans to average: 1
Electric dark correction enabled: true
Nonlinearity correction enabled: false
Boxcar width: 0
XAxis mode: Wavelengths
Number of Pixels in Spectrum: 3648
>>>>>Begin Spectral Data<<<<<
179,969	-179,88
180,181	-179,88
180,394	-179,88
180,606	-177,83
180,819	-186,02
181,031	-30,38
181,243	74,07
181,456	-71,34
181,668	82,26
181,88	24,92
182,093	-7,85
182,305	-67,24
182,518	-28,33
182,73	10,58
182,942	4,44
183,155	0,34
183,367	8,53
183,579	0,34
183,791	84,31
184,004	104,79
184,216	26,96
184,428	35,16
184,641	14,68
184,853	31,06
185,065	61,78
185,277	43,35
185,49	141,65
185,702	10,58
185,914	82,26
186,126	-5,8
186,338	35,16
186,551	59,73
186,763	92,5
186,975	43,35
187,187	92,5
187,399	53,59
187,612	45,4
187,824	24,92
188,036	125,27
188,248	65,88
188,46	63,83
188,672	65,88
188,885	10,58
189,097	112,98
189,309	24,92
189,521	57,68
189,733	100,69
189,945	10,58
190,157	104,79
190,369	80,21
190,581	80,21
190,794	67,92
191,006	0,34
191,218	76,12
191,43	112,98
191,642	39,25
191,854	59,73
192,066	98,64
192,278	115,03
192,49	59,73
192,702	69,97
192,914	-24,23
193,126	26,96
193,338	39,25
193,55	108,88
193,762	10,58
193,974	49,49
194,186	-52,91
194,398	26,96
194,61	74,07
194,822	74,07
195,034	80,21
195,246	74,07
195,457	92,5
195,669	108,88
195,881	59,73
196,093	121,17
196,305	10,58
196,517	33,11
196,729	117,08
196,941	43,35
197,153	125,27
197,365	80,21
197,576	41,3
197,788	20,82
198	119,12
198,212	119,12
198,424	43,35
198,636	33,11
198,847	51,54
199,059	78,16
199,271	65,88
199,483	112,98
199,695	90,45
199,906	112,98
200,118	41,3
200,33	72,02
200,542	360,78
200,753	78,16
200,965	24,92
201,177	39,25
201,389	74,07
201,6	-50,86
201,812	12,63
202,024	43,35
202,235	-22,19
202,447	67,92
202,659	67,92
202,871	55,64
203,082	59,73
203,294	80,21
203,506	96,6
203,717	67,92
203,929	2,39
204,141	153,94
204,352	125,27
204,564	2,39
204,775	12,63
204,987	76,12
205,199	80,21
205,41	39,25
205,622	121,17
205,833	72,02
206,045	112,98
206,257	106,84
206,468	0,34
206,68	53,59
206,891	-5,8
207,103	-65,19
207,314	18,77
207,526	61,78
207,737	51,54
207,949	63,83
208,16	47,44
208,372	137,56
208,583	29,01
208,795	31,06
209,006	82,26
209,218	69,97
209,429	53,59
209,641	110,93
209,852	51,54
210,064	137,56
210,275	43,35
210,487	115,03
210,698	51,54
210,909	106,84
211,121	65,88
211,332	155,99
211,544	164,18
211,755	43,35
211,966	80,21
212,178	-5,8
212,389	180,56
212,6	86,36
212,812	108,88
213,023	2,39
213,234	67,92
213,446	90,45
213,657	-18,09
213,868	76,12
214,08	151,89
214,291	82,26
214,502	106,84
214,714	43,35
214,925	65,88
215,136	18,77
215,347	18,77
215,559	92,5
215,77	26,96
215,981	166,23
216,192	76,12
216,404	74,07
216,615	41,3
216,826	166,23
217,037	6,49
217,249	43,35
217,46	127,32
217,671	129,36
217,882	18,77
218,093	104,79
218,304	94,55
218,516	115,03
218,727	51,54
218,938	78,16
219,149	166,23
219,36	76,12
219,571	117,08
219,782	8,53
219,993	90,45
220,205	-1,71
220,416	59,73
220,627	117,08
220,838	137,56
221,049	108,88
221,26	115,03
221,471	39,25
221,682	108,88
221,893	117,08
222,104	-34,47
222,315	45,4
222,526	41,3
222,737	63,83
222,948	51,54
223,159	35,16
223,37	90,45
223,581	47,44
223,792	84,31
224,003	43,35
224,214	61,78
224,425	98,64
224,636	43,35
224,847	92,5
225,058	108,88
225,269	65,88
225,48	78,16
225,691	51,54
225,902	104,79
226,112	88,4
226,323	0,34
226,534	100,69
226,745	76,12
226,956	10,58
227,167	65,88
227,378	47,44
227,589	33,11
227,799	145,75
228,01	65,88
228,221	82,26
228,432	65,88
228,643	-7,85
228,853	129,36
229,064	49,49
229,275	90,45
229,486	26,96
229,697	155,99
229,907	49,49
230,118	24,92
230,329	39,25
230,54	26,96
230,75	76,12
230,961	121,17
231,172	20,82
231,383	12,63
231,593	65,88
231,804	51,54
232,015	16,73
232,225	125,27
232,436	51,54
232,647	67,92
232,857	123,22
233,068	43,35
233,279	141,65
233,489	26,96
233,7	145,75
233,91	67,92
234,121	6,49
234,332	108,88
234,542	59,73
234,753	35,16
234,964	133,46
235,174	-24,23
235,385	137,56
235,595	57,68
235,806	141,65
236,016	72,02
236,227	72,02
236,437	43,35
236,648	100,69
236,858	108,88
237,069	84,31
237,279	108,88
237,49	80,21
237,7	106,84
237,911	96,6
238,121	18,77
238,332	65,88
238,542	119,12
238,753	110,93
238,963	10,58
239,174	57,68
239,384	98,64
239,595	67,92
239,805	10,58
240,015	125,27
240,226	88,4
240,436	82,26
240,647	117,08
240,857	57,68
241,067	65,88
241,278	131,41
241,488	55,64
241,698	16,73
241,909	100,69
242,119	98,64
242,329	74,07
242,54	41,3
242,75	69,97
242,96	67,92
243,171	65,88
243,381	65,88
243,591	90,45
243,801	108,88
244,012	84,31
244,222	29,01
244,432	55,64
244,642	26,96
244,853	57,68
245,063	39,25
245,273	141,65
245,483	203,09
245,694	67,92
245,904	26,96
246,114	100,69
246,324	63,83
246,534	47,44
246,744	92,5
246,955	49,49
247,165	37,2
247,375	190,8
247,585	69,97
247,795	53,59
248,005	127,32
248,215	162,13
248,425	104,79
248,636	182,61
248,846	35,16
249,056	59,73
249,266	98,64
249,476	96,6
249,686	67,92
249,896	88,4
250,106	26,96
250,316	67,92
250,526	123,22
250,736	43,35
250,946	135,51
251,156	115,03
251,366	76,12
251,576	57,68
251,786	121,17
251,996	-20,14
252,206	31,06
252,416	117,08
252,626	4,44
252,836	90,45
253,046	74,07
253,256	133,46
253,466	82,26
253,676	22,87
253,885	115,03
254,095	18,77
254,305	-16,04
254,515	55,64
254,725	18,77
254,935	59,73
255,145	131,41
255,355	0,34
255,564	41,3
255,774	92,5
255,984	96,6
256,194	14,68
256,404	86,36
256,614	115,03
256,823	170,32
257,033	117,08
257,243	123,22
257,453	53,59
257,662	74,07
257,872	110,93
258,082	112,98
258,292	78,16
258,501	172,37
258,711	260,43
258,921	178,51
259,131	18,77
259,34	24,92
259,55	-9,9
259,76	61,78
259,969	67,92
260,179	35,16
260,389	115,03
260,598	133,46
260,808	59,73
261,018	24,92
261,227	121,17
261,437	76,12
261,647	133,46
261,856	57,68
262,066	100,69
262,275	141,65
262,485	63,83
262,694	133,46
262,904	59,73
263,114	139,6
263,323	84,31
263,533	55,64
263,742	51,54
263,952	84,31
264,161	26,96
264,371	59,73
264,58	24,92
264,79	92,5
264,999	153,94
265,209	110,93
265,418	125,27
265,628	65,88
265,837	125,27
266,047	104,79
266,256	86,36
266,466	65,88
266,675	49,49
266,884	67,92
267,094	12,63
267,303	153,94
267,513	100,69
267,722	172,37
267,931	123,22
268,141	63,83
268,35	33,11
268,559	145,75
268,769	100,69
268,978	65,88
269,187	74,07
269,397	65,88
269,606	-1,71
269,815	88,4
270,025	129,36
270,234	92,5
270,443	33,11
270,653	72,02
270,862	41,3
271,071	125,27
271,28	43,35
271,49	72,02
271,699	51,54
271,908	67,92
272,117	74,07
272,327	14,68
272,536	96,6
272,745	59,73
272,954	18,77
273,163	18,77
273,372	151,89
273,582	39,25
273,791	51,54
274	6,49
274,209	84,31
274,418	100,69
274,627	121,17
274,836	76,12
275,046	55,64
275,255	108,88
275,464	78,16
275,673	135,51
275,882	129,36
276,091	76,12
276,3	65,88
276,509	55,64
276,718	94,55
276,927	57,68
277,136	90,45
277,345	65,88
277,554	86,36
277,763	172,37
277,972	22,87
278,181	90,45
278,39	84,31
278,599	78,16
278,808	76,12
279,017	123,22
279,226	-5,8
279,435	86,36
279,644	51,54
279,853	131,41
280,062	76,12
280,271	41,3
280,48	102,74
280,688	41,3
280,897	108,88
281,106	108,88
281,315	31,06
281,524	100,69
281,733	84,31
281,942	117,08
282,151	2,39
282,359	108,88
282,568	59,73
282,777	137,56
282,986	74,07
283,195	76,12
283,403	82,26
283,612	57,68
283,821	33,11
284,03	59,73
284,238	98,64
284,447	43,35
284,656	80,21
284,865	147,8
285,073	80,21
285,282	96,6
285,491	53,59
285,699	76,12
285,908	67,92
286,117	74,07
286,325	80,21
286,534	127,32
286,743	106,84
286,951	10,58
287,16	108,88
287,369	18,77
287,577	131,41
287,786	82,26
287,995	123,22
288,203	76,12
288,412	22,87
288,62	117,08
288,829	22,87
289,037	82,26
289,246	59,73
289,455	106,84
289,663	108,88
289,872	194,9
290,08	51,54
290,289	145,75
290,497	35,16
290,706	78,16
290,914	8,53
291,123	51,54
291,331	92,5
291,54	170,32
291,748	239,95
291,957	82,26
292,165	135,51
292,373	47,44
292,582	55,64
292,79	115,03
292,999	117,08
293,207	108,88
293,415	35,16
293,624	59,73
293,832	98,64
294,041	80,21
294,249	74,07
294,457	33,11
294,666	108,88
294,874	18,77
295,082	35,16
295,291	47,44
295,499	16,73
295,707	123,22
295,915	0,34
296,124	104,79
296,332	108,88
296,54	88,4
296,749	106,84
296,957	84,31
297,165	76,12
297,373	84,31
297,581	65,88
297,79	90,45
297,998	65,88
298,206	72,02
298,414	65,88
298,622	47,44
298,831	137,56
299,039	74,07
299,247	112,98
299,455	141,65
299,663	125,27
299,871	55,64
300,08	90,45
300,288	102,74
300,496	133,46
300,704	96,6
300,912	115,03
301,12	96,6
301,328	141,65
301,536	26,96
301,744	67,92
301,952	47,44
302,16	-5,8
302,368	98,64
302,576	106,84
302,784	119,12
302,992	8,53
303,2	39,25
303,408	49,49
303,616	41,3
303,824	141,65
304,032	170,32
304,24	115,03
304,448	80,21
304,656	33,11
304,864	237,91
305,072	80,21
305,28	63,83
305,488	133,46
305,696	125,27
305,904	80,21
306,111	14,68
306,319	90,45
306,527	104,79
306,735	188,75
306,943	170,32
307,151	127,32
307,359	59,73
307,566	170,32
307,774	74,07
307,982	35,16
308,19	55,64
308,398	92,5
308,605	100,69
308,813	88,4
309,021	67,92
309,229	51,54
309,436	90,45
309,644	188,75
309,852	80,21
310,06	129,36
310,267	86,36
310,475	178,51
310,683	207,19
310,89	63,83
311,098	98,64
311,306	108,88
311,513	108,88
311,721	63,83
311,929	190,8
312,136	127,32
312,344	108,88
312,552	110,93
312,759	115,03
312,967	137,56
313,174	80,21
313,382	149,84
313,589	149,84
313,797	108,88
314,005	129,36
314,212	215,38
314,42	24,92
314,627	100,69
314,835	90,45
315,042	84,31
315,25	88,4
315,457	137,56
315,665	90,45
315,872	168,27
316,08	198,99
316,287	31,06
316,495	391,5
316,702	108,88
316,909	76,12
317,117	115,03
317,324	131,41
317,532	166,23
317,739	123,22
317,946	190,8
318,154	69,97
318,361	125,27
318,569	125,27
318,776	127,32
318,983	125,27
319,191	145,75
319,398	141,65
319,605	139,6
319,813	227,67
320,02	112,98
320,227	198,99
320,434	158,03
320,642	121,17
320,849	198,99
321,056	153,94
321,264	184,66
321,471	131,41
321,678	155,99
321,885	149,84
322,092	205,14
322,3	166,23
322,507	217,43
322,714	190,8
322,921	137,56
323,128	69,97
323,336	182,61
323,543	188,75
323,75	239,95
323,957	219,47
324,164	155,99
324,371	164,18
324,578	145,75
324,786	319,82
324,993	155,99
325,2	211,28
325,407	67,92
325,614	170,32
325,821	254,29
326,028	309,58
326,235	164,18
326,442	289,1
326,649	137,56
326,856	227,67
327,063	158,03
327,27	155,99
327,477	213,33
327,684	211,28
327,891	256,34
328,098	313,68
328,305	293,2
328,512	184,66
328,719	248,15
328,926	354,64
329,133	248,15
329,34	287,06
329,546	178,51
329,753	137,56
329,96	244,05
330,167	287,06
330,374	262,48
330,581	291,15
330,788	182,61
330,995	276,82
331,201	254,29
331,408	231,76
331,615	239,95
331,822	178,51
332,029	293,2
332,235	229,71
332,442	229,71
332,649	309,58
332,856	227,67
333,062	250,19
333,269	305,49
333,476	330,06
333,683	321,87
333,889	270,67
334,096	280,91
334,303	309,58
334,509	272,72
334,716	379,22
334,923	395,6
335,129	280,91
335,336	358,74
335,543	321,87
335,749	338,26
335,956	371,02
336,163	233,81
336,369	352,59
336,576	278,87
336,782	344,4
336,989	289,1
337,196	375,12
337,402	221,52
337,609	295,25
337,815	325,97
338,022	330,06
338,228	313,68
338,435	401,74
338,641	334,16
338,848	432,46
339,054	371,02
339,261	262,48
339,467	285,01
339,674	332,11
339,88	407,89
340,087	371,02
340,293	434,51
340,5	354,64
340,706	395,6
340,912	303,44
341,119	301,39
341,325	371,02
341,532	289,1
341,738	407,89
341,944	430,41
342,151	475,47
342,357	428,37
342,563	477,52
342,77	428,37
342,976	346,45
343,182	485,71
343,389	395,6
343,595	475,47
343,801	366,93
344,007	416,08
344,214	407,89
344,42	401,74
344,626	403,79
344,832	330,06
345,039	360,78
345,245	475,47
345,451	420,17
345,657	516,43
345,864	399,7
346,07	485,71
346,276	514,38
346,482	510,29
346,688	536,91
346,894	485,71
347,1	530,77
347,307	473,42
347,513	477,52
347,719	399,7
347,925	506,19
348,131	518,48
348,337	549,2
348,543	450,89
348,749	407,89
348,955	584,01
349,161	459,09
349,367	549,2
349,573	504,14
349,779	592,2
349,985	485,71
350,191	551,24
350,397	579,92
350,603	641,36
350,809	500,05
351,015	528,72
351,221	567,63
351,427	606,54
351,633	579,92
351,839	631,12
352,045	614,73
352,251	696,65
352,457	672,08
352,663	674,12
352,869	577,87
353,075	604,49
353,28	604,49
353,486	600,4
353,692	633,16
353,898	502,09
354,104	624,97
354,31	657,74
354,515	592,2
354,721	684,36
354,927	620,88
355,133	637,26
355,339	764,23
355,544	672,08
355,75	657,74
355,956	725,32
356,162	680,27
356,367	622,92
356,573	674,12
356,779	641,36
356,984	631,12
357,19	805,19
357,396	764,23
357,602	743,75
357,807	753,99
358,013	737,61
358,218	747,85
358,424	690,51
358,63	719,18
358,835	837,96
359,041	692,55
359,247	770,38
359,452	713,03
359,658	815,43
359,863	797
360,069	727,37
360,274	797
360,48	874,82
360,685	797
360,891	821,58
361,097	794,95
361,302	776,52
361,508	893,26
361,713	848,2
361,918	874,82
362,124	868,68
362,329	797
362,535	932,17
362,74	923,98
362,946	905,54
363,151	893,26
363,357	876,87
363,562	887,11
363,767	862,54
363,973	962,89
364,178	813,38
364,383	926,02
364,589	960,84
364,794	962,89
365	862,54
365,205	971,08
365,41	903,5
365,615	1018,18
365,821	991,56
366,026	981,32
366,231	966,98
366,437	977,22
366,642	1028,42
366,847	1048,9
367,052	1071,43
367,258	993,61
367,463	1022,28
367,668	1014,09
367,873	1059,14
368,078	987,46
368,284	1009,99
368,489	1061,19
368,694	1118,53
368,899	1200,45
369,104	1065,29
369,309	1087,81
369,515	1001,8
369,72	1083,72
369,925	1098,05
370,13	1122,63
370,335	1253,7
370,54	1134,92
370,745	1186,12
370,95	1153,35
371,155	1212,74
371,36	1108,29
371,565	1214,79
371,77	1229,12
371,975	1057,09
372,18	1290,56
372,385	1198,4
372,59	1124,68
372,795	1282,37
373	1190,21
373,205	1128,77
373,41	1173,83
373,615	1263,94
373,82	1100,1
374,025	1179,97
374,23	1159,49
374,435	1200,45
374,64	1214,79
374,845	1220,93
375,05	1132,87
375,254	1272,13
375,459	1278,27
375,664	1231,17
375,869	1206,59
376,074	1188,16
376,279	1251,65
376,483	1261,89
376,688	1149,25
376,893	1341,76
377,098	1169,73
377,303	1296,71
377,507	1296,71
377,712	1452,35
377,917	1354,05
378,122	1395,01
378,326	1358,14
378,531	1321,28
378,736	1329,47
378,94	1321,28
379,145	1306,95
379,35	1337,66
379,554	1349,95
379,759	1343,81
379,964	1399,1
380,168	1356,1
380,373	1354,05
380,578	1380,67
380,782	1442,11
380,987	1401,15
381,191	1395,01
381,396	1362,24
381,601	1462,59
381,805	1356,1
382,01	1425,73
382,214	1485,12
382,419	1448,26
382,623	1493,31
382,828	1392,96
383,032	1421,63
383,237	1372,48
383,441	1382,72
383,646	1474,88
383,85	1485,12
384,055	1542,46
384,259	1505,6
384,464	1411,39
384,668	1444,16
384,872	1528,13
385,077	1481,02
385,281	1585,47
385,486	1505,6
385,69	1550,65
385,894	1665,34
386,099	1540,41
386,303	1640,76
386,507	1638,72
386,712	1718,59
386,916	1558,85
387,12	1567,04
387,325	1767,74
387,529	1669,44
387,733	1632,57
387,937	1689,92
388,142	1630,52
388,346	1696,06
388,55	1651
388,754	1681,72
388,959	1663,29
389,163	1728,83
389,367	1796,41
389,571	1616,19
389,775	1792,31
389,98	1706,3
390,184	1681,72
390,388	1833,27
390,592	1726,78
390,796	1720,64
391	1696,06
391,204	1794,36
391,409	1825,08
391,613	1734,97
391,817	1827,13
392,021	1886,52
392,225	1698,11
392,429	1868,09
392,633	1898,81
392,837	1923,38
393,041	1911,1
393,245	1911,1
393,449	1876,28
393,653	1800,51
393,857	1866,04
394,061	2113,85
394,265	1933,62
394,469	1984,82
394,673	1993,01
394,877	1984,82
395,081	2160,95
395,285	2124,08
395,489	1937,72
395,693	2138,42
395,896	2136,37
396,1	2103,61
396,304	2156,85
396,508	2070,84
396,712	2107,7
396,916	1960,25
397,12	2206
397,323	2218,29
397,527	2230,58
397,731	2152,76
397,935	2038,07
398,139	2097,46
398,342	2087,22
398,546	2255,15
398,75	2220,34
398,954	2341,17
399,157	2097,46
399,361	2257,2
399,565	2099,51
399,769	2363,7
399,972	2394,42
400,176	2326,83
400,38	2269,49
400,583	2345,27
400,787	2402,61
400,991	2320,69
401,194	2380,08
401,398	2386,22
401,601	2345,27
401,805	2337,07
402,009	2353,46
402,212	2357,55
402,416	2451,76
402,619	2412,85
402,823	2568,49
403,026	2543,92
403,23	2343,22
403,433	2511,15
403,637	2386,22
403,841	2410,8
404,044	2613,55
404,247	2474,29
404,451	2621,74
404,654	2492,72
404,858	2517,29
405,061	2558,25
405,265	2685,23
405,468	2777,39
405,672	2629,93
405,875	2656,56
406,078	2664,75
406,282	2779,43
406,485	2631,98
406,689	2732,33
406,892	2875,69
407,095	2623,79
407,299	2586,93
407,502	2660,65
407,705	2742,57
407,909	2842,92
408,112	2783,53
408,315	2904,36
408,518	2951,46
408,722	2767,15
408,925	2779,43
409,128	2951,46
409,331	3049,77
409,535	2967,85
409,738	3033,38
409,941	3047,72
410,144	2947,37
410,347	3033,38
410,551	2967,85
410,754	3066,15
410,957	3017
411,16	3068,2
411,363	2949,42
411,566	2998,57
411,769	3082,53
411,973	3135,78
412,176	3195,17
412,379	3264,8
412,582	3164,45
412,785	3172,64
412,988	3221,8
413,191	3072,29
413,394	3131,69
413,597	3297,57
413,8	3258,66
414,003	3399,97
414,206	3100,97
414,409	3356,96
414,612	3180,84
414,815	3328,29
415,018	3465,5
415,221	3334,43
415,424	3184,93
415,627	3381,54
415,83	3256,61
416,033	3385,63
416,235	3385,63
416,438	3500,32
416,641	3311,91
416,844	3393,83
417,047	3465,5
417,25	3295,52
417,453	3524,9
417,655	3442,98
417,858	3481,89
418,061	3442,98
418,264	3342,63
418,467	3541,28
418,669	3428,64
418,872	3680,54
419,075	3549,47
419,278	3610,91
419,48	3623,2
419,683	3653,92
419,886	3531,04
420,089	3705,12
420,291	3694,88
420,494	3733,79
420,697	3565,85
420,899	3754,27
421,102	3483,94
421,305	3844,38
421,507	3670,3
421,71	3696,92
421,912	3762,46
422,115	3858,71
422,318	3729,69
422,52	3850,52
422,723	3762,46
422,925	3905,82
423,128	3827,99
423,33	3762,46
423,533	3713,31
423,735	3866,91
423,938	3952,92
424,14	3967,26
424,343	3825,95
424,545	3987,74
424,748	3924,25
424,95	3889,43
425,153	4016,41
425,355	4237,59
425,558	4204,82
425,76	4045,08
425,962	3875,1
426,165	3948,83
426,367	4239,64
426,57	4311,32
426,772	4210,97
426,974	4215,06
427,177	4114,71
427,379	4147,48
427,581	4161,81
427,784	4284,69
427,986	3897,63
428,188	4479,25
428,39	4440,34
428,593	4258,07
428,795	4462,87
428,997	4579,6
429,2	4333,84
429,402	4581,65
429,604	4491,54
429,806	4391,19
430,008	4460,82
430,211	4600,08
430,413	4552,98
430,615	4581,65
430,817	4573,46
431,019	4579,6
431,221	4534,54
431,423	4450,58
431,626	4612,37
431,828	4612,37
432,03	4671,76
432,232	4778,25
432,434	4716,81
432,636	4868,36
432,838	4548,88
433,04	4759,82
433,242	4925,71
433,444	4682
433,646	4825,36
433,848	4890,89
434,05	5015,82
434,252	4753,68
434,454	4765,96
434,656	4819,21
434,858	5122,31
435,06	4909,32
435,262	5095,69
435,464	5146,89
435,666	5243,14
435,868	5218,57
436,07	5230,85
436,271	5374,21
436,473	5253,38
436,675	5292,29
436,877	5060,87
437,079	5013,77
437,281	5237
437,482	5499,14
437,684	5421,31
437,886	5298,44
438,088	5286,15
438,29	5439,75
438,491	5480,71
438,693	5255,43
438,895	5349,64
439,097	5931,26
439,298	5443,84
439,5	5525,76
439,702	5515,52
439,903	5458,18
440,105	5513,47
440,307	5734,65
440,508	5734,65
440,71	5783,81
440,912	5767,42
441,113	5589,25
441,315	5669,12
441,517	5765,37
441,718	5794,04
441,92	5777,66
442,121	5662,97
442,323	6013,18
442,524	5972,22
442,726	6062,33
442,928	5777,66
443,129	5972,22
443,331	5767,42
443,532	5828,86
443,734	6070,52
443,935	6152,44
444,136	5753,09
444,338	5964,03
444,539	5982,46
444,741	6166,78
444,942	5832,96
445,144	5998,84
445,345	6342,9
445,546	5996,79
445,748	5998,84
445,949	6004,99
446,151	5851,39
446,352	6191,35
446,553	6162,68
446,755	6007,03
446,956	6117,62
447,157	6316,28
447,359	6111,48
447,56	6293,75
447,761	6113,53
447,962	6310,13
448,164	6381,81
448,365	6019,32
448,566	6357,24
448,767	6316,28
448,969	6408,44
449,17	6308,09
449,371	6158,58
449,572	6299,89
449,773	6377,72
449,974	6629,62
450,176	6676,72
450,377	6693,1
450,578	6758,64
450,779	6385,91
450,98	6199,54
451,181	6490,35
451,382	6451,44
451,583	6617,33
451,784	6680,82
451,986	7092,46
452,187	6473,97
452,388	6547,7
452,589	6480,11
452,79	6818,03
452,991	6564,08
453,192	6834,41
453,393	6762,73
453,594	7166,18
453,795	6605,04
453,995	6781,17
454,196	6711,53
454,397	6922,48
454,598	6744,3
454,799	7194,86
