Data from LED  blau_USB4F035431__0__12-58-48-741.txt Node

Date: Tue Feb 02 12:58:48 CET 2021
User: Praktikum
Spectrometer: USB4F03543
Trigger mode: 4
Integration Time (sec): 4,000000E-1
Scans to average: 1
Electric dark correction enabled: true
Nonlinearity correction enabled: false
Boxcar width: 0
XAxis mode: Wavelengths
Number of Pixels in Spectrum: 3648
>>>>>Begin Spectral Data<<<<<
179,969	-685,56
180,181	-685,56
180,394	-685,56
180,606	-523,77
180,819	-615,93
181,031	225,79
181,243	344,57
181,456	-192
181,668	-87,55
181,88	188,93
182,093	31,23
182,305	-323,07
182,518	-157,18
182,73	313,85
182,942	139,77
183,155	-284,16
183,367	-200,19
183,579	174,59
183,791	268,8
184,004	-267,77
184,216	-163,33
184,428	61,95
184,641	78,33
184,853	-245,24
185,065	-198,14
185,277	92,67
185,49	238,08
185,702	-290,3
185,914	-271,87
186,126	121,34
186,338	143,87
186,551	-335,35
186,763	-136,7
186,975	-108,03
187,187	72,19
187,399	-271,87
187,612	-226,81
187,824	33,28
188,036	90,62
188,248	-161,28
188,46	-202,24
188,672	150,01
188,885	-46,59
189,097	-144,89
189,309	-259,58
189,521	88,57
189,733	238,08
189,945	-200,19
190,157	-95,74
190,369	57,86
190,581	-5,63
190,794	-87,55
191,006	-269,82
191,218	72,19
191,43	135,68
191,642	-288,25
191,854	-189,95
192,066	303,61
192,278	158,21
192,49	-333,31
192,702	-153,09
192,914	139,77
193,126	190,97
193,338	-235
193,55	-144,89
193,762	254,46
193,974	-179,71
194,186	-271,87
194,398	-198,14
194,61	94,72
194,822	217,6
195,034	-202,24
195,246	-7,68
195,457	82,43
195,669	299,52
195,881	-165,37
196,093	-189,95
196,305	150,01
196,517	-210,43
196,729	-183,81
196,941	-163,33
197,153	289,28
197,365	403,96
197,576	-294,4
197,788	-245,24
198	203,26
198,212	272,89
198,424	-249,34
198,636	-251,39
198,847	-54,78
199,059	86,53
199,271	-349,69
199,483	-134,65
199,695	51,71
199,906	164,35
200,118	-226,81
200,33	-200,19
200,542	911,86
200,753	98,81
200,965	-284,16
201,177	-171,52
201,389	84,48
201,6	-112,13
201,812	-263,68
202,024	-196,09
202,235	4,61
202,447	219,64
202,659	-194,05
202,871	-163,33
203,082	66,05
203,294	-19,97
203,506	-261,63
203,717	-79,36
203,929	156,16
204,141	-5,63
204,352	-247,29
204,564	-177,66
204,775	39,42
204,987	352,76
205,199	-210,43
205,41	-140,8
205,622	225,79
205,833	94,72
206,045	-153,09
206,257	-155,13
206,468	-50,69
206,68	-46,59
206,891	-169,47
207,103	-247,29
207,314	-136,7
207,526	207,36
207,737	-218,62
207,949	-58,88
208,16	154,11
208,372	64
208,583	-177,66
208,795	-189,95
209,006	29,18
209,218	119,29
209,429	-259,58
209,641	-169,47
209,852	51,71
210,064	203,26
210,275	-259,58
210,487	-157,18
210,698	256,51
210,909	227,84
211,121	-87,55
211,332	-124,41
211,544	158,21
211,755	281,08
211,966	4,61
212,178	-249,34
212,389	453,11
212,6	20,99
212,812	68,09
213,023	-192
213,234	205,31
213,446	227,84
213,657	-304,64
213,868	-179,71
214,08	410,11
214,291	217,6
214,502	-220,67
214,714	-237,05
214,925	-5,63
215,136	104,96
215,347	-157,18
215,559	-261,63
215,77	-44,54
215,981	297,47
216,192	-275,96
216,404	-175,61
216,615	160,25
216,826	127,49
217,037	-222,72
217,249	-269,82
217,46	381,43
217,671	121,34
217,882	-267,77
218,093	-220,67
218,304	115,2
218,516	127,49
218,727	-316,92
218,938	-286,2
219,149	465,4
219,36	168,45
219,571	-321,02
219,782	-222,72
219,993	354,81
220,205	-42,5
220,416	-163,33
220,627	-142,85
220,838	260,6
221,049	500,22
221,26	-241,15
221,471	-251,39
221,682	168,45
221,893	270,84
222,104	-226,81
222,315	-294,4
222,526	-77,31
222,737	27,14
222,948	-284,16
223,159	-224,76
223,37	94,72
223,581	-65,02
223,792	-228,86
224,003	-138,75
224,214	-101,89
224,425	127,49
224,636	-257,53
224,847	-122,37
225,058	133,63
225,269	139,77
225,48	-280,06
225,691	-306,68
225,902	197,12
226,112	66,05
226,323	-310,78
226,534	-210,43
226,745	16,9
226,956	25,09
227,167	-130,56
227,378	-196,09
227,589	-116,22
227,799	311,8
228,01	-247,29
228,221	-267,77
228,432	102,91
228,643	-120,32
228,853	-179,71
229,064	-271,87
229,275	80,38
229,486	14,85
229,697	-161,28
229,907	-144,89
230,118	104,96
230,329	-60,93
230,54	-222,72
230,75	-79,36
230,961	274,94
231,172	29,18
231,383	-171,52
231,593	-300,54
231,804	-40,45
232,015	104,96
232,225	-202,24
232,436	-232,96
232,647	207,36
232,857	229,88
233,068	-273,92
233,279	-71,17
233,489	37,38
233,7	74,24
233,91	-228,86
234,121	-214,52
234,332	113,15
234,542	6,66
234,753	-212,48
234,964	-146,94
235,174	6,66
235,385	252,41
235,595	-216,57
235,806	-62,98
236,016	-93,69
236,227	-48,64
236,437	-284,16
236,648	-181,76
236,858	125,44
237,069	-50,69
237,279	-202,24
237,49	-208,38
237,7	123,39
237,911	51,71
238,121	-247,29
238,332	-179,71
238,542	164,35
238,753	14,85
238,963	-259,58
239,174	-169,47
239,384	121,34
239,595	4,61
239,805	-185,85
240,015	-237,05
240,226	72,19
240,436	131,58
240,647	-235
240,857	-220,67
241,067	53,76
241,278	715,25
241,488	-331,26
241,698	-126,46
241,909	-19,97
242,119	111,1
242,329	-122,37
242,54	-126,46
242,75	66,05
242,96	-95,74
243,171	-134,65
243,381	-140,8
243,591	-50,69
243,801	268,8
244,012	4,61
244,222	-189,95
244,432	-228,86
244,642	-9,73
244,853	-208,38
245,063	-177,66
245,273	104,96
245,483	96,77
245,694	-153,09
245,904	-187,9
246,114	82,43
246,324	-44,54
246,534	-146,94
246,744	-245,24
246,955	-267,77
247,165	281,08
247,375	45,57
247,585	-157,18
247,795	131,58
248,005	182,78
248,215	-202,24
248,425	-134,65
248,636	641,53
248,846	0,51
249,056	-243,2
249,266	-226,81
249,476	88,57
249,686	152,06
249,896	-267,77
250,106	-169,47
250,316	66,05
250,526	408,06
250,736	-261,63
250,946	66,05
251,156	293,37
251,366	-15,87
251,576	-116,22
251,786	-3,58
251,996	-54,78
252,206	-79,36
252,416	-159,23
252,626	-196,09
252,836	-36,35
253,046	143,87
253,256	-132,61
253,466	-118,27
253,676	174,59
253,885	199,16
254,095	-192
254,305	-130,56
254,515	68,09
254,725	94,72
254,935	-288,25
255,145	-140,8
255,355	279,04
255,564	49,66
255,774	-241,15
255,984	96,77
256,194	147,97
256,404	66,05
256,614	-175,61
256,823	-87,55
257,033	18,94
257,243	274,94
257,453	-224,76
257,662	-134,65
257,872	303,61
258,082	-17,92
258,292	-269,82
258,501	-159,23
258,711	659,96
258,921	412,15
259,131	-290,3
259,34	-226,81
259,55	51,71
259,76	-38,4
259,969	-175,61
260,179	-157,18
260,389	55,81
260,598	328,19
260,808	-138,75
261,018	-163,33
261,227	311,8
261,437	-13,82
261,647	-235
261,856	-282,11
262,066	119,29
262,275	432,63
262,485	-241,15
262,694	-122,37
262,904	16,9
263,114	233,98
263,323	-218,62
263,533	-230,91
263,742	-87,55
263,952	133,63
264,161	-304,64
264,371	-146,94
264,58	107,01
264,79	-17,92
264,999	-101,89
265,209	-208,38
265,418	209,4
265,628	80,38
265,837	-226,81
266,047	-220,67
266,256	305,66
266,466	-65,02
266,675	-255,48
266,884	-103,93
267,094	100,86
267,303	315,9
267,513	-153,09
267,722	-22,02
267,931	137,73
268,141	-54,78
268,35	-224,76
268,559	-247,29
268,769	43,52
268,978	-187,9
269,187	-179,71
269,397	-167,42
269,606	-161,28
269,815	-65,02
270,025	-179,71
270,234	-179,71
270,443	-91,65
270,653	59,9
270,862	-345,59
271,071	-179,71
271,28	-60,93
271,49	84,48
271,699	-146,94
271,908	-204,28
272,117	27,14
272,327	-46,59
272,536	-286,2
272,745	-173,57
272,954	-13,82
273,163	190,97
273,372	160,25
273,582	-202,24
273,791	166,4
274	-17,92
274,209	-67,07
274,418	31,23
274,627	264,7
274,836	-17,92
275,046	8,7
275,255	-89,6
275,464	-34,3
275,673	-87,55
275,882	25,09
276,091	-99,84
276,3	213,5
276,509	43,52
276,718	-67,07
276,927	-48,64
277,136	78,33
277,345	129,53
277,554	51,71
277,763	64
277,972	121,34
278,181	186,88
278,39	-93,69
278,599	-11,78
278,808	-38,4
279,017	213,5
279,226	-237,05
279,435	-13,82
279,644	117,25
279,853	211,45
280,062	324,09
280,271	-95,74
280,48	72,19
280,688	0,51
280,897	43,52
281,106	-153,09
281,315	-62,98
281,524	59,9
281,733	8,7
281,942	-42,5
282,151	98,81
282,359	141,82
282,568	-112,13
282,777	-40,45
282,986	33,28
283,195	150,01
283,403	33,28
283,612	-62,98
283,821	45,57
284,03	-73,21
284,238	-1,54
284,447	-71,17
284,656	29,18
284,865	178,69
285,073	-7,68
285,282	-15,87
285,491	-46,59
285,699	-112,13
285,908	-17,92
286,117	-36,35
286,325	107,01
286,534	291,32
286,743	-15,87
286,951	-15,87
287,16	207,36
287,369	12,8
287,577	-85,5
287,786	-54,78
287,995	68,09
288,203	-99,84
288,412	111,1
288,62	-17,92
288,829	0,51
289,037	10,75
289,246	-28,16
289,455	-136,7
289,663	139,77
289,872	281,08
290,08	-50,69
290,289	61,95
290,497	-13,82
290,706	131,58
290,914	-144,89
291,123	-54,78
291,331	61,95
291,54	274,94
291,748	195,07
291,957	82,43
292,165	84,48
292,373	-99,84
292,582	-52,74
292,79	-13,82
292,999	107,01
293,207	109,05
293,415	-89,6
293,624	-159,23
293,832	35,33
294,041	164,35
294,249	-1,54
294,457	-194,05
294,666	43,52
294,874	-196,09
295,082	-22,02
295,291	-42,5
295,499	-36,35
295,707	96,77
295,915	-15,87
296,124	47,62
296,332	27,14
296,54	27,14
296,749	133,63
296,957	-19,97
297,165	27,14
297,373	-17,92
297,581	59,9
297,79	-97,79
297,998	-153,09
298,206	-108,03
298,414	-17,92
298,622	10,75
298,831	133,63
299,039	29,18
299,247	168,45
299,455	-3,58
299,663	322,04
299,871	43,52
300,08	-116,22
300,288	-40,45
300,496	27,14
300,704	27,14
300,912	-103,93
301,12	10,75
301,328	125,44
301,536	33,28
301,744	-187,9
301,952	-103,93
302,16	-103,93
302,368	-5,63
302,576	-52,74
302,784	152,06
302,992	-202,24
303,2	-128,51
303,408	-3,58
303,616	-124,41
303,824	190,97
304,032	262,65
304,24	219,64
304,448	61,95
304,656	18,94
304,864	283,13
305,072	59,9
305,28	-19,97
305,488	33,28
305,696	88,57
305,904	-15,87
306,111	-185,85
306,319	-22,02
306,527	61,95
306,735	39,42
306,943	-3,58
307,151	74,24
307,359	-62,98
307,566	8,7
307,774	123,39
307,982	152,06
308,19	-103,93
308,398	-71,17
308,605	-52,74
308,813	-116,22
309,021	-5,63
309,229	174,59
309,436	-56,83
309,644	209,4
309,852	221,69
310,06	51,71
310,267	-79,36
310,475	104,96
310,683	133,63
310,89	27,14
311,098	47,62
311,306	82,43
311,513	254,46
311,721	-65,02
311,929	96,77
312,136	-26,11
312,344	-32,26
312,552	98,81
312,759	-22,02
312,967	152,06
313,174	156,16
313,382	72,19
313,589	25,09
313,797	258,56
314,005	125,44
314,212	14,85
314,42	-146,94
314,627	-5,63
314,835	-40,45
315,042	-44,54
315,25	-263,68
315,457	-91,65
315,665	-267,77
315,872	107,01
316,08	-38,4
316,287	-114,17
316,495	438,78
316,702	-50,69
316,909	-185,85
317,117	246,27
317,324	117,25
317,532	203,26
317,739	-175,61
317,946	-9,73
318,154	-60,93
318,361	-89,6
318,569	59,9
318,776	10,75
318,983	-91,65
319,191	72,19
319,398	0,51
319,605	104,96
319,813	119,29
320,02	-239,1
320,227	160,25
320,434	203,26
320,642	-26,11
320,849	-132,61
321,056	76,29
321,264	82,43
321,471	117,25
321,678	20,99
321,885	-130,56
322,092	174,59
322,3	96,77
322,507	-146,94
322,714	20,99
322,921	-15,87
323,128	-163,33
323,336	-44,54
323,543	6,66
323,75	207,36
323,957	76,29
324,164	12,8
324,371	57,86
324,578	-173,57
324,786	150,01
324,993	-65,02
325,2	-44,54
325,407	-300,54
325,614	51,71
325,821	121,34
326,028	121,34
326,235	227,84
326,442	53,76
326,649	-81,41
326,856	8,7
327,063	-175,61
327,27	10,75
327,477	-36,35
327,684	-265,72
327,891	-138,75
328,098	123,39
328,305	72,19
328,512	-118,27
328,719	139,77
328,926	238,08
329,133	-83,45
329,34	309,76
329,546	35,33
329,753	20,99
329,96	-144,89
330,167	84,48
330,374	215,55
330,581	184,83
330,788	-183,81
330,995	12,8
331,201	18,94
331,408	27,14
331,615	0,51
331,822	-60,93
332,029	-24,06
332,235	51,71
332,442	-48,64
332,649	-79,36
332,856	-112,13
333,062	10,75
333,269	43,52
333,476	-7,68
333,683	-83,45
333,889	127,49
334,096	-7,68
334,303	41,47
334,509	-13,82
334,716	57,86
334,923	37,38
335,129	-40,45
335,336	135,68
335,543	156,16
335,749	-22,02
335,956	219,64
336,163	-130,56
336,369	164,35
336,576	0,51
336,782	49,66
336,989	-34,3
337,196	133,63
337,402	-105,98
337,609	-210,43
337,815	-28,16
338,022	199,16
338,228	98,81
338,435	195,07
338,641	199,16
338,848	322,04
339,054	68,09
339,261	-171,52
339,467	-181,76
339,674	125,44
339,88	113,15
340,087	-189,95
340,293	-1,54
340,5	55,81
340,706	43,52
340,912	-173,57
341,119	-52,74
341,325	39,42
341,532	-65,02
341,738	-89,6
341,944	233,98
342,151	35,33
342,357	-77,31
342,563	88,57
342,77	68,09
342,976	-44,54
343,182	68,09
343,389	-9,73
343,595	20,99
343,801	-67,07
344,007	152,06
344,214	-200,19
344,42	61,95
344,626	-19,97
344,832	-153,09
345,039	-48,64
345,245	74,24
345,451	12,8
345,657	-81,41
345,864	-44,54
346,07	100,86
346,276	61,95
346,482	133,63
346,688	152,06
346,894	-26,11
347,1	123,39
347,307	-19,97
347,513	205,31
347,719	47,62
347,925	78,33
348,131	-155,13
348,337	53,76
348,543	-73,21
348,749	-138,75
348,955	119,29
349,161	-155,13
349,367	135,68
349,573	285,18
349,779	-15,87
349,985	0,51
350,191	-15,87
350,397	207,36
350,603	88,57
350,809	-5,63
351,015	123,39
351,221	-7,68
351,427	18,94
351,633	86,53
351,839	219,64
352,045	137,73
352,251	90,62
352,457	-71,17
352,663	80,38
352,869	-50,69
353,075	-17,92
353,28	-69,12
353,486	23,04
353,692	33,28
353,898	14,85
354,104	-42,5
354,31	150,01
354,515	-146,94
354,721	29,18
354,927	-122,37
355,133	166,4
355,339	-3,58
355,544	-42,5
355,75	92,67
355,956	82,43
356,162	90,62
356,367	-128,51
356,573	92,67
356,779	41,47
356,984	182,78
357,19	154,11
357,396	-3,58
357,602	403,96
357,807	74,24
358,013	10,75
358,218	31,23
358,424	-17,92
358,63	-110,08
358,835	59,9
359,041	-79,36
359,247	59,9
359,452	-52,74
359,658	-54,78
359,863	2,56
360,069	96,77
360,274	70,14
360,48	86,53
360,685	-5,63
360,891	246,27
361,097	18,94
361,302	-105,98
361,508	127,49
361,713	70,14
361,918	365,05
362,124	10,75
362,329	35,33
362,535	100,86
362,74	14,85
362,946	-5,63
363,151	-58,88
363,357	59,9
363,562	-73,21
363,767	-110,08
363,973	43,52
364,178	-105,98
364,383	-50,69
364,589	-38,4
364,794	-124,41
365	180,73
365,205	154,11
365,41	-93,69
365,615	47,62
365,821	-79,36
366,026	236,03
366,231	84,48
366,437	162,3
366,642	-173,57
366,847	311,8
367,052	-34,3
367,258	-103,93
367,463	-30,21
367,668	10,75
367,873	80,38
368,078	84,48
368,284	-269,82
368,489	37,38
368,694	-9,73
368,899	-34,3
369,104	154,11
369,309	57,86
369,515	-54,78
369,72	51,71
369,925	-22,02
370,13	133,63
370,335	68,09
370,54	29,18
370,745	104,96
370,95	92,67
371,155	35,33
371,36	33,28
371,565	248,32
371,77	156,16
371,975	-87,55
372,18	96,77
372,385	190,97
372,59	227,84
372,795	25,09
373	43,52
373,205	190,97
373,41	117,25
373,615	-83,45
373,82	-173,57
374,025	20,99
374,23	-175,61
374,435	-38,4
374,64	-81,41
374,845	199,16
375,05	125,44
375,254	-9,73
375,459	-71,17
375,664	-75,26
375,869	78,33
376,074	-198,14
376,279	-128,51
376,483	131,58
376,688	-79,36
376,893	-38,4
377,098	-83,45
377,303	139,77
377,507	107,01
377,712	43,52
377,917	80,38
378,122	190,97
378,326	68,09
378,531	-136,7
378,736	-54,78
378,94	-60,93
379,145	47,62
379,35	45,57
379,554	-11,78
379,759	-99,84
379,964	125,44
380,168	-185,85
380,373	-19,97
380,578	363
380,782	416,25
380,987	68,09
381,191	-138,75
381,396	160,25
381,601	98,81
381,805	47,62
382,01	166,4
382,214	225,79
382,419	70,14
382,623	-15,87
382,828	2,56
383,032	43,52
383,237	-124,41
383,441	-97,79
383,646	115,2
383,85	-120,32
384,055	166,4
384,259	-56,83
384,464	-108,03
384,668	-38,4
384,872	45,57
385,077	25,09
385,281	-19,97
385,486	-50,69
385,69	145,92
385,894	92,67
386,099	131,58
386,303	41,47
386,507	180,73
386,712	53,76
386,916	-69,12
387,12	-46,59
387,325	283,13
387,529	43,52
387,733	57,86
387,937	-28,16
388,142	20,99
388,346	-146,94
388,55	-5,63
388,754	98,81
388,959	-22,02
389,163	-11,78
389,367	-95,74
389,571	-65,02
389,775	256,51
389,98	-58,88
390,184	33,28
390,388	-19,97
390,592	70,14
390,796	25,09
391	41,47
391,204	27,14
391,409	35,33
391,613	-46,59
391,817	-58,88
392,021	78,33
392,225	90,62
392,429	-62,98
392,633	8,7
392,837	61,95
393,041	66,05
393,245	49,66
393,449	-206,33
393,653	41,47
393,857	166,4
394,061	131,58
394,265	0,51
394,469	76,29
394,673	182,78
394,877	98,81
395,081	16,9
395,285	252,41
395,489	78,33
395,693	6,66
395,896	-32,26
396,1	221,69
396,304	150,01
396,508	-169,47
396,712	-30,21
396,916	-34,3
397,12	43,52
397,323	-58,88
397,527	-13,82
397,731	256,51
397,935	131,58
398,139	-5,63
398,342	137,73
398,546	164,35
398,75	-65,02
398,954	31,23
399,157	207,36
399,361	217,6
399,565	-71,17
399,769	127,49
399,972	37,38
400,176	61,95
400,38	90,62
400,583	51,71
400,787	100,86
400,991	182,78
401,194	168,45
401,398	117,25
401,601	82,43
401,805	150,01
402,009	92,67
402,212	94,72
402,416	317,95
402,619	-48,64
402,823	365,05
403,026	-34,3
403,23	-52,74
403,433	346,62
403,637	221,69
403,841	131,58
404,044	35,33
404,247	33,28
404,451	125,44
404,654	246,27
404,858	150,01
405,061	100,86
405,265	150,01
405,468	186,88
405,672	-13,82
405,875	338,43
406,078	53,76
406,282	16,9
406,485	-22,02
406,689	281,08
406,892	416,25
407,095	66,05
407,299	37,38
407,502	240,12
407,705	49,66
407,909	55,81
408,112	127,49
408,315	379,39
408,518	406,01
408,722	154,11
408,925	143,87
409,128	367,1
409,331	209,4
409,535	180,73
409,738	188,93
409,941	537,08
410,144	244,22
410,347	340,47
410,551	238,08
410,754	223,74
410,957	326,14
411,16	84,48
411,363	233,98
411,566	283,13
411,769	342,52
411,973	164,35
412,176	408,06
412,379	541,18
412,582	535,03
412,785	315,9
412,988	123,39
413,191	352,76
413,394	416,25
413,597	193,02
413,8	238,08
414,003	549,37
414,206	336,38
414,409	444,92
414,612	340,47
414,815	434,68
415,018	434,68
415,221	369,15
415,424	455,16
415,627	606,71
415,83	479,74
416,033	520,7
416,235	348,67
416,438	600,57
416,641	645,62
416,844	481,78
417,047	307,71
417,25	352,76
417,453	471,54
417,655	399,87
417,858	549,37
418,061	475,64
418,264	569,85
418,467	420,35
418,669	510,46
418,872	836,08
419,075	520,7
419,278	565,75
419,48	586,23
419,683	750,07
419,886	569,85
420,089	565,75
420,291	739,83
420,494	588,28
420,697	684,53
420,899	752,12
421,102	571,9
421,305	899,57
421,507	803,32
421,71	870,9
421,912	772,6
422,115	825,84
422,318	1063,41
422,52	975,35
422,723	856,56
422,925	1212,91
423,128	1368,56
423,33	786,93
423,533	956,91
423,735	1087,98
423,938	1149,42
424,14	1065,46
424,343	1255,92
424,545	1429,99
424,748	1360,36
424,95	1208,81
425,153	1274,35
425,355	1448,43
425,558	1743,33
425,76	1554,92
425,962	1501,67
426,165	1540,58
426,367	1765,86
426,57	1645,03
426,772	1665,51
426,974	1974,75
427,177	1667,56
427,379	1718,76
427,581	1913,31
427,784	1772
427,986	1919,46
428,188	1976,8
428,39	2032,1
428,593	2212,32
428,795	2562,52
428,997	2343,39
429,2	2306,52
429,402	2705,88
429,604	2384,35
429,806	2435,55
430,008	2822,61
430,211	2832,85
430,413	2752,98
430,615	2775,51
430,817	3160,53
431,019	3201,49
431,221	3365,32
431,423	3004,88
431,626	3307,98
431,828	3348,94
432,03	3295,69
432,232	3418,57
432,434	3838,41
432,636	3916,23
432,838	3799,49
433,04	4106,69
433,242	4182,46
433,444	4069,83
433,646	4594,11
433,848	4391,36
434,05	4583,87
434,252	4497,85
434,454	4979,12
434,656	4768,18
434,858	5171,63
435,06	5142,96
435,262	5327,28
435,464	5675,43
435,666	5841,32
435,868	5990,82
436,07	6281,63
436,271	6363,55
436,473	6056,36
436,675	6910,36
436,877	6392,22
437,079	6566,3
