Data from LED  kaltweiss_USB4F035431__0__13-00-37-130.txt Node

Date: Tue Feb 02 13:00:37 CET 2021
User: Praktikum
Spectrometer: USB4F03543
Trigger mode: 4
Integration Time (sec): 4,000000E-1
Scans to average: 1
Electric dark correction enabled: true
Nonlinearity correction enabled: false
Boxcar width: 0
XAxis mode: Wavelengths
Number of Pixels in Spectrum: 3648
>>>>>Begin Spectral Data<<<<<
179,969	-648,18
180,181	-648,18
180,394	-648,18
180,606	-601,08
180,819	-646,13
181,031	222,2
181,243	326,65
181,456	-214,01
181,668	-115,71
181,88	216,06
182,093	103,42
182,305	-287,74
182,518	-220,16
182,73	291,84
182,942	160,77
183,155	-297,98
183,367	-185,34
183,579	144,38
183,791	275,45
184,004	-199,68
184,216	-152,57
184,428	70,65
184,641	72,7
184,853	-183,29
185,065	-240,64
185,277	95,23
185,49	236,54
185,702	-220,16
185,914	-269,31
186,126	52,22
186,338	175,1
186,551	-246,78
186,763	-168,96
186,975	-58,37
187,187	154,62
187,399	-236,54
187,612	-189,44
187,824	68,61
188,036	97,28
188,248	-123,9
188,46	-216,06
188,672	191,49
188,885	-27,65
189,097	-189,44
189,309	-271,36
189,521	80,89
189,733	193,53
189,945	-181,25
190,157	-101,37
190,369	3,07
190,581	68,61
190,794	-138,24
191,006	-177,15
191,218	-13,31
191,43	142,33
191,642	-242,68
191,854	-183,29
192,066	357,37
192,278	105,47
192,49	-220,16
192,702	-146,43
192,914	173,05
193,126	101,37
193,338	-181,25
193,55	-228,35
193,762	191,49
193,974	-101,37
194,186	-330,75
194,398	-78,85
194,61	103,42
194,822	115,71
195,034	-171,01
195,246	-1,02
195,457	191,49
195,669	365,56
195,881	-222,2
196,093	-209,92
196,305	185,34
196,517	-162,81
196,729	-142,33
196,941	-263,16
197,153	277,5
197,365	353,27
197,576	-267,26
197,788	-218,11
198	232,44
198,212	322,56
198,424	-220,16
198,636	-265,21
198,847	-54,27
199,059	142,33
199,271	-287,74
199,483	-177,15
199,695	101,37
199,906	195,58
200,118	-242,68
200,33	-201,72
200,542	971,76
200,753	-54,27
200,965	-228,35
201,177	-187,39
201,389	113,66
201,6	-109,57
201,812	-158,72
202,024	-140,29
202,235	54,27
202,447	273,4
202,659	-205,82
202,871	-168,96
203,082	89,09
203,294	5,12
203,506	-238,59
203,717	-44,03
203,929	171,01
204,141	-60,42
204,352	-185,34
204,564	-306,17
204,775	37,89
204,987	328,7
205,199	-173,05
205,41	-142,33
205,622	275,45
205,833	76,8
206,045	-132,09
206,257	-224,25
206,468	23,55
206,68	-82,94
206,891	-158,72
207,103	-179,2
207,314	-162,81
207,526	177,15
207,737	-236,54
207,949	-68,61
208,16	142,33
208,372	191,49
208,583	-236,54
208,795	-211,96
209,006	7,17
209,218	164,86
209,429	-195,58
209,641	-152,57
209,852	13,31
210,064	222,2
210,275	-189,44
210,487	-152,57
210,698	224,25
210,909	211,96
211,121	-158,72
211,332	-99,33
211,544	238,59
211,755	209,92
211,966	-70,65
212,178	-168,96
212,389	484,34
212,6	29,7
212,812	93,18
213,023	-152,57
213,234	291,84
213,446	121,85
213,657	-322,56
213,868	-224,25
214,08	482,3
214,291	226,3
214,502	-166,91
214,714	-283,64
214,925	115,71
215,136	31,74
215,347	-128
215,559	-254,97
215,77	1,02
215,981	293,88
216,192	-261,12
216,404	-156,67
216,615	273,4
216,826	257,02
217,037	-166,91
217,249	-82,94
217,46	414,71
217,671	54,27
217,882	-238,59
218,093	-205,82
218,304	150,53
218,516	220,16
218,727	-293,88
218,938	-183,29
219,149	506,87
219,36	142,33
219,571	-257,02
219,782	-240,64
219,993	375,8
220,205	17,41
220,416	-56,32
220,627	-119,81
220,838	252,92
221,049	543,74
221,26	-232,44
221,471	-218,11
221,682	166,91
221,893	295,93
222,104	-222,2
222,315	-295,93
222,526	3,07
222,737	37,89
222,948	-267,26
223,159	-123,9
223,37	148,48
223,581	1,02
223,792	-265,21
224,003	-136,19
224,214	-50,18
224,425	191,49
224,636	-252,92
224,847	-91,13
225,058	74,75
225,269	140,29
225,48	-291,84
225,691	-261,12
225,902	236,54
226,112	11,26
226,323	-340,99
226,534	-183,29
226,745	74,75
226,956	31,74
227,167	-158,72
227,378	-152,57
227,589	-97,28
227,799	379,9
228,01	-205,82
228,221	-254,97
228,432	91,13
228,643	-158,72
228,853	-244,73
229,064	-154,62
229,275	70,65
229,486	48,13
229,697	-183,29
229,907	-128
230,118	87,04
230,329	58,37
230,54	-240,64
230,75	-64,51
230,961	267,26
231,172	101,37
231,383	-195,58
231,593	-254,97
231,804	-33,79
232,015	121,85
232,225	-222,2
232,436	-175,1
232,647	185,34
232,857	177,15
233,068	-185,34
233,279	-82,94
233,489	105,47
233,7	146,43
233,91	-91,13
234,121	-234,49
234,332	91,13
234,542	84,99
234,753	-201,72
234,964	-111,61
235,174	89,09
235,385	222,2
235,595	-168,96
235,806	-50,18
236,016	-13,31
236,227	-58,37
236,437	-220,16
236,648	-234,49
236,858	82,94
237,069	-50,18
237,279	-246,78
237,49	-287,74
237,7	175,1
237,911	52,22
238,121	-265,21
238,332	-132,09
238,542	113,66
238,753	101,37
238,963	-191,49
239,174	-193,53
239,384	46,08
239,595	72,7
239,805	-152,57
240,015	-240,64
240,226	113,66
240,436	119,81
240,647	-244,73
240,857	-252,92
241,067	166,91
241,278	693,24
241,488	-228,35
241,698	-68,61
241,909	60,42
242,119	140,29
242,329	-185,34
242,54	-168,96
242,75	87,04
242,96	-123,9
243,171	-119,81
243,381	-181,25
243,591	7,17
243,801	240,64
244,012	-35,84
244,222	-216,06
244,432	-156,67
244,642	-37,89
244,853	-234,49
245,063	-179,2
245,273	214,01
245,483	123,9
245,694	-150,53
245,904	-109,57
246,114	263,16
246,324	-54,27
246,534	-168,96
246,744	-199,68
246,955	-285,69
247,165	328,7
247,375	97,28
247,585	-123,9
247,795	173,05
248,005	156,67
248,215	-121,85
248,425	-62,46
248,636	611,32
248,846	-50,18
249,056	-191,49
249,266	-191,49
249,476	66,56
249,686	107,52
249,896	-246,78
250,106	-121,85
250,316	70,65
250,526	449,53
250,736	-275,45
250,946	11,26
251,156	320,51
251,366	-29,7
251,576	-146,43
251,786	-125,95
251,996	-33,79
252,206	-27,65
252,416	-232,44
252,626	-224,25
252,836	-121,85
253,046	158,72
253,256	-95,23
253,466	-148,48
253,676	89,09
253,885	156,67
254,095	-218,11
254,305	-148,48
254,515	154,62
254,725	62,46
254,935	-175,1
255,145	-136,19
255,355	263,16
255,564	89,09
255,774	-160,77
255,984	1,02
256,194	117,76
256,404	29,7
256,614	-187,39
256,823	-123,9
257,033	7,17
257,243	205,82
257,453	-310,27
257,662	-209,92
257,872	246,78
258,082	121,85
258,292	-236,54
258,501	-125,95
258,711	685,05
258,921	449,53
259,131	-351,23
259,34	-238,59
259,55	84,99
259,76	-29,7
259,969	-181,25
260,179	-107,52
260,389	132,09
260,598	367,61
260,808	-123,9
261,018	-195,58
261,227	318,46
261,437	19,46
261,647	-152,57
261,856	-353,27
262,066	252,92
262,275	379,9
262,485	-246,78
262,694	-13,31
262,904	125,95
263,114	310,27
263,323	-214,01
263,533	-197,63
263,742	70,65
263,952	171,01
264,161	-267,26
264,371	-224,25
264,58	115,71
264,79	27,65
264,999	-82,94
265,209	-254,97
265,418	214,01
265,628	58,37
265,837	-230,4
266,047	-185,34
266,256	312,32
266,466	31,74
266,675	-240,64
266,884	-171,01
267,094	179,2
267,303	318,46
267,513	-173,05
267,722	23,55
267,931	203,77
268,141	-50,18
268,35	-166,91
268,559	-179,2
268,769	54,27
268,978	-156,67
269,187	-201,72
269,397	-158,72
269,606	-80,89
269,815	-60,42
270,025	-99,33
270,234	-148,48
270,443	-109,57
270,653	99,33
270,862	-175,1
271,071	-166,91
271,28	-66,56
271,49	140,29
271,699	-140,29
271,908	-48,13
272,117	123,9
272,327	23,55
272,536	-340,99
272,745	-158,72
272,954	-15,36
273,163	142,33
273,372	209,92
273,582	-136,19
273,791	181,25
274	-58,37
274,209	-60,42
274,418	39,94
274,627	259,07
274,836	-11,26
275,046	-1,02
275,255	-46,08
275,464	19,46
275,673	-35,84
275,882	48,13
276,091	-148,48
276,3	226,3
276,509	31,74
276,718	31,74
276,927	-50,18
277,136	189,44
277,345	130,05
277,554	21,5
277,763	105,47
277,972	179,2
278,181	138,24
278,39	-60,42
278,599	13,31
278,808	107,52
279,017	121,85
279,226	-166,91
279,435	-3,07
279,644	39,94
279,853	187,39
280,062	310,27
280,271	-115,71
280,48	19,46
280,688	-25,6
280,897	54,27
281,106	-144,38
281,315	-107,52
281,524	175,1
281,733	-21,5
281,942	17,41
282,151	54,27
282,359	195,58
282,568	-121,85
282,777	-27,65
282,986	80,89
283,195	140,29
283,403	25,6
283,612	-160,77
283,821	11,26
284,03	-48,13
284,238	72,7
284,447	54,27
284,656	39,94
284,865	175,1
285,073	-72,7
285,282	-66,56
285,491	3,07
285,699	-78,85
285,908	9,22
286,117	19,46
286,325	56,32
286,534	306,17
286,743	3,07
286,951	3,07
287,16	211,96
287,369	62,46
287,577	-5,12
287,786	-1,02
287,995	54,27
288,203	-123,9
288,412	78,85
288,62	7,17
288,829	68,61
289,037	-7,17
289,246	-37,89
289,455	-119,81
289,663	56,32
289,872	279,55
290,08	39,94
290,289	91,13
290,497	-99,33
290,706	144,38
290,914	-201,72
291,123	-58,37
291,331	78,85
291,54	320,51
291,748	207,87
291,957	7,17
292,165	150,53
292,373	-105,47
292,582	15,36
292,79	64,51
292,999	150,53
293,207	142,33
293,415	-66,56
293,624	-64,51
293,832	52,22
294,041	105,47
294,249	-41,98
294,457	-115,71
294,666	134,14
294,874	-48,13
295,082	21,5
295,291	41,98
295,499	64,51
295,707	76,8
295,915	62,46
296,124	68,61
296,332	97,28
296,54	46,08
296,749	220,16
296,957	-11,26
297,165	52,22
297,373	9,22
297,581	-105,47
297,79	-41,98
297,998	-9,22
298,206	-91,13
298,414	52,22
298,622	-9,22
298,831	263,16
299,039	-46,08
299,247	68,61
299,455	48,13
299,663	349,18
299,871	25,6
300,08	-27,65
300,288	-3,07
300,496	103,42
300,704	115,71
300,912	-21,5
301,12	-76,8
301,328	72,7
301,536	-19,46
301,744	-222,2
301,952	-62,46
302,16	-70,65
302,368	-29,7
302,576	27,65
302,784	93,18
302,992	-136,19
303,2	-27,65
303,408	-19,46
303,616	-11,26
303,824	185,34
304,032	181,25
304,24	216,06
304,448	-37,89
304,656	-91,13
304,864	324,6
305,072	52,22
305,28	37,89
305,488	9,22
305,696	89,09
305,904	17,41
306,111	-148,48
306,319	-21,5
306,527	23,55
306,735	89,09
306,943	41,98
307,151	13,31
307,359	-62,46
307,566	-7,17
307,774	193,53
307,982	214,01
308,19	-29,7
308,398	-76,8
308,605	-35,84
308,813	-70,65
309,021	1,02
309,229	181,25
309,436	-115,71
309,644	158,72
309,852	134,14
310,06	46,08
310,267	-87,04
310,475	123,9
310,683	89,09
310,89	64,51
311,098	97,28
311,306	48,13
311,513	195,58
311,721	-37,89
311,929	5,12
312,136	138,24
312,344	21,5
312,552	33,79
312,759	-113,66
312,967	269,31
313,174	156,67
313,382	87,04
313,589	25,6
313,797	224,25
314,005	99,33
314,212	-3,07
314,42	-160,77
314,627	39,94
314,835	-19,46
315,042	33,79
315,25	-160,77
315,457	-78,85
315,665	-201,72
315,872	76,8
316,08	-1,02
316,287	-54,27
316,495	515,06
316,702	-44,03
316,909	-121,85
317,117	171,01
317,324	142,33
317,532	160,77
317,739	-82,94
317,946	58,37
318,154	-121,85
318,361	68,61
318,569	84,99
318,776	-31,74
318,983	-152,57
319,191	5,12
319,398	-15,36
319,605	52,22
319,813	209,92
320,02	-181,25
320,227	166,91
320,434	224,25
320,642	41,98
320,849	-3,07
321,056	21,5
321,264	76,8
321,471	70,65
321,678	39,94
321,885	-140,29
322,092	187,39
322,3	82,94
322,507	-246,78
322,714	46,08
322,921	23,55
323,128	-138,24
323,336	-128
323,543	-5,12
323,75	265,21
323,957	37,89
324,164	113,66
324,371	87,04
324,578	-177,15
324,786	166,91
324,993	-19,46
325,2	-23,55
325,407	-281,6
325,614	97,28
325,821	187,39
326,028	166,91
326,235	150,53
326,442	138,24
326,649	-39,94
326,856	-21,5
327,063	-58,37
327,27	78,85
327,477	5,12
327,684	-132,09
327,891	-66,56
328,098	164,86
328,305	84,99
328,512	-35,84
328,719	191,49
328,926	293,88
329,133	-82,94
329,34	283,64
329,546	125,95
329,753	44,03
329,96	-76,8
330,167	82,94
330,374	25,6
330,581	263,16
330,788	-207,87
330,995	68,61
331,201	54,27
331,408	78,85
331,615	-21,5
331,822	-107,52
332,029	9,22
332,235	105,47
332,442	-82,94
332,649	-99,33
332,856	-54,27
333,062	11,26
333,269	-15,36
333,476	-15,36
333,683	97,28
333,889	37,89
334,096	21,5
334,303	31,74
334,509	-21,5
334,716	156,67
334,923	52,22
335,129	7,17
335,336	80,89
335,543	60,42
335,749	27,65
335,956	119,81
336,163	-76,8
336,369	148,48
336,576	-1,02
336,782	119,81
336,989	-58,37
337,196	35,84
337,402	-54,27
337,609	-128
337,815	60,42
338,022	185,34
338,228	103,42
338,435	271,36
338,641	232,44
338,848	214,01
339,054	166,91
339,261	-74,75
339,467	-105,47
339,674	115,71
339,88	95,23
340,087	-89,09
340,293	-19,46
340,5	82,94
340,706	66,56
340,912	-74,75
341,119	19,46
341,325	-39,94
341,532	-66,56
341,738	-138,24
341,944	214,01
342,151	91,13
342,357	-35,84
342,563	140,29
342,77	13,31
342,976	5,12
343,182	72,7
343,389	35,84
343,595	33,79
343,801	-58,37
344,007	64,51
344,214	-162,81
344,42	19,46
344,626	-74,75
344,832	-119,81
345,039	-82,94
345,245	19,46
345,451	19,46
345,657	44,03
345,864	-134,14
346,07	91,13
346,276	138,24
346,482	191,49
346,688	89,09
346,894	1,02
347,1	136,19
347,307	3,07
347,513	132,09
347,719	39,94
347,925	138,24
348,131	-171,01
348,337	52,22
348,543	-11,26
348,749	-60,42
348,955	146,43
349,161	-121,85
349,367	37,89
349,573	269,31
349,779	101,37
349,985	-27,65
350,191	5,12
350,397	138,24
350,603	97,28
350,809	-74,75
351,015	150,53
351,221	35,84
351,427	150,53
351,633	9,22
351,839	211,96
352,045	134,14
352,251	146,43
352,457	19,46
352,663	150,53
352,869	-54,27
353,075	5,12
353,28	-95,23
353,486	72,7
353,692	17,41
353,898	-109,57
354,104	-52,22
354,31	183,29
354,515	-82,94
354,721	68,61
354,927	-1,02
355,133	166,91
355,339	115,71
355,544	11,26
355,75	146,43
355,956	121,85
356,162	80,89
356,367	-146,43
356,573	113,66
356,779	-27,65
356,984	214,01
357,19	207,87
357,396	54,27
357,602	314,36
357,807	84,99
358,013	-46,08
358,218	93,18
358,424	-3,07
358,63	-125,95
358,835	-35,84
359,041	-70,65
359,247	84,99
359,452	-66,56
359,658	-64,51
359,863	46,08
360,069	115,71
360,274	115,71
360,48	138,24
360,685	39,94
360,891	291,84
361,097	-44,03
361,302	7,17
361,508	181,25
361,713	125,95
361,918	406,52
362,124	23,55
362,329	15,36
362,535	187,39
362,74	72,7
362,946	-44,03
363,151	-70,65
363,357	113,66
363,562	-46,08
363,767	-160,77
363,973	109,57
364,178	56,32
364,383	-31,74
364,589	-15,36
364,794	-162,81
365	201,72
365,205	121,85
365,41	5,12
365,615	70,65
365,821	-58,37
366,026	199,68
366,231	56,32
366,437	189,44
366,642	-138,24
366,847	289,79
367,052	-1,02
367,258	-109,57
367,463	-39,94
367,668	21,5
367,873	138,24
368,078	68,61
368,284	-236,54
368,489	3,07
368,694	-60,42
368,899	3,07
369,104	158,72
369,309	125,95
369,515	-52,22
369,72	164,86
369,925	-25,6
370,13	191,49
370,335	60,42
370,54	13,31
370,745	89,09
370,95	87,04
371,155	91,13
371,36	105,47
371,565	115,71
371,77	152,57
371,975	-72,7
372,18	107,52
372,385	269,31
372,59	144,38
372,795	72,7
373	121,85
373,205	189,44
373,41	162,81
373,615	-70,65
373,82	-226,3
374,025	56,32
374,23	-132,09
374,435	-91,13
374,64	72,7
374,845	216,06
375,05	164,86
375,254	7,17
375,459	-128
375,664	31,74
375,869	31,74
376,074	-117,76
376,279	-138,24
376,483	103,42
376,688	-50,18
376,893	70,65
377,098	-93,18
377,303	199,68
377,507	160,77
377,712	39,94
377,917	115,71
378,122	271,36
378,326	72,7
378,531	-37,89
378,736	-78,85
378,94	5,12
379,145	56,32
379,35	115,71
379,554	-56,32
379,759	-80,89
379,964	162,81
380,168	-44,03
380,373	-87,04
380,578	283,64
380,782	379,9
380,987	119,81
381,191	-76,8
381,396	128
381,601	144,38
381,805	29,7
382,01	263,16
382,214	168,96
382,419	119,81
382,623	23,55
382,828	68,61
383,032	13,31
383,237	-207,87
383,441	-125,95
383,646	191,49
383,85	-82,94
384,055	44,03
384,259	33,79
384,464	-162,81
384,668	64,51
384,872	39,94
385,077	7,17
385,281	29,7
385,486	-9,22
385,69	103,42
385,894	113,66
386,099	144,38
386,303	87,04
386,507	183,29
386,712	156,67
386,916	-66,56
387,12	-21,5
387,325	279,55
387,529	72,7
387,733	97,28
387,937	3,07
388,142	-9,22
388,346	-99,33
388,55	44,03
388,754	97,28
388,959	39,94
389,163	62,46
389,367	-23,55
389,571	-70,65
389,775	261,12
389,98	-7,17
390,184	113,66
390,388	3,07
390,592	234,49
390,796	54,27
391	15,36
391,204	117,76
391,409	68,61
391,613	-3,07
391,817	-87,04
392,021	281,6
392,225	54,27
392,429	-1,02
392,633	46,08
392,837	-23,55
393,041	146,43
393,245	72,7
393,449	-113,66
393,653	103,42
393,857	220,16
394,061	109,57
394,265	56,32
394,469	64,51
394,673	216,06
394,877	236,54
395,081	107,52
395,285	363,51
395,489	148,48
395,693	7,17
395,896	56,32
396,1	195,58
396,304	207,87
396,508	-60,42
396,712	19,46
396,916	95,23
397,12	128
397,323	80,89
397,527	31,74
397,731	312,32
397,935	203,77
398,139	64,51
398,342	201,72
398,546	242,68
398,75	95,23
398,954	121,85
399,157	220,16
399,361	310,27
399,565	-80,89
399,769	171,01
399,972	130,05
400,176	91,13
400,38	121,85
400,583	-1,02
400,787	209,92
400,991	257,02
401,194	199,68
401,398	158,72
401,601	87,04
401,805	326,65
402,009	285,69
402,212	97,28
402,416	383,99
402,619	44,03
402,823	367,61
403,026	17,41
403,23	37,89
403,433	496,63
403,637	168,96
403,841	160,77
404,044	164,86
404,247	209,92
404,451	185,34
404,654	226,3
404,858	185,34
405,061	187,39
405,265	183,29
405,468	222,2
405,672	80,89
405,875	365,56
406,078	158,72
406,282	160,77
406,485	3,07
406,689	361,47
406,892	478,2
407,095	109,57
407,299	156,67
407,502	449,53
407,705	74,75
407,909	191,49
408,112	214,01
408,315	431,1
408,518	582,65
408,722	179,2
408,925	205,82
409,128	551,93
409,331	457,72
409,535	375,8
409,738	207,87
409,941	769,01
410,144	420,86
410,347	496,63
410,551	424,95
410,754	396,28
410,957	496,63
411,16	248,83
411,363	482,3
411,566	549,88
411,769	560,12
411,973	365,56
412,176	515,06
412,379	793,59
412,582	750,58
412,785	631,8
412,988	371,71
413,191	730,1
413,394	629,75
413,597	388,09
413,8	480,25
414,003	914,42
414,206	576,5
414,409	726
414,612	601,08
414,815	785,4
415,018	775,16
415,221	771,06
415,424	891,89
415,627	951,28
415,83	941,04
416,033	949,23
416,235	814,07
416,438	1158,13
416,641	1178,61
416,844	938,99
417,047	855,03
417,25	957,43
417,453	1233,9
417,655	1108,98
417,858	1192,94
418,061	1092,59
418,264	1211,37
418,467	1215,47
418,669	1254,38
418,872	1575,91
419,075	1367,02
419,278	1387,5
419,48	1592,3
419,683	1524,71
419,886	1444,84
420,089	1661,93
420,291	1620,97
420,494	1702,89
420,697	1778,66
420,899	1909,73
421,102	1620,97
421,305	2147,3
421,507	2020,32
421,71	2087,9
421,912	2118,62
422,115	2167,77
422,318	2413,53
422,52	2507,74
422,723	2370,52
422,925	2829,27
423,128	2724,82
423,33	2485,21
423,533	2554,84
423,735	2984,91
423,938	3046,35
424,14	2941,91
424,343	3017,68
424,545	3494,86
424,748	3224,53
424,95	3363,79
425,153	3533,77
425,355	3726,28
425,558	4025,28
425,76	3730,38
425,962	3849,16
426,165	3939,27
426,367	4477,88
426,57	4430,78
426,772	4426,68
426,974	4699,06
427,177	4481,98
427,379	4737,98
427,581	5071,79
427,784	5309,36
427,986	4996,02
428,188	5362,61
428,39	5653,42
428,593	5630,89
428,795	6472,61
428,997	6204,32
429,2	6036,39
429,402	6642,59
429,604	6634,39
429,806	6532
430,008	7089,04
430,211	7279,5
430,413	7242,64
430,615	7295,89
430,817	8057,73
431,019	8137,6
431,221	8262,53
431,423	8182,66
431,626	8336,26
431,828	8661,88
432,03	8745,85
432,232	9016,18
432,434	9513,84
432,636	9833,32
432,838	9583,47
433,04	10163,04
433,242	10423,14
433,444	10351,46
433,646	10783,58
433,848	10871,64
434,05	11361,11
434,252	11479,89
434,454	11506,51
434,656	11918,15
434,858	12419,91
435,06	12553,02
435,262	12737,34
435,464	13538,1
435,666	13988,65
435,868	13548,34
436,07	14420,77
436,271	15125,27
436,473	14689,06
436,675	15475,48
436,877	15209,24
437,079	15016,73
437,281	15944,46
