Data from LED Lampe warmweiss_USB4F035431__0__12-40-47-472.txt Node

Date: Tue Feb 02 12:40:47 CET 2021
User: Praktikum
Spectrometer: USB4F03543
Trigger mode: 4
Integration Time (sec): 1,000000E-1
Scans to average: 1
Electric dark correction enabled: true
Nonlinearity correction enabled: false
Boxcar width: 0
XAxis mode: Wavelengths
Number of Pixels in Spectrum: 3648
>>>>>Begin Spectral Data<<<<<
179,969	-127,14
180,181	-127,14
180,394	-127,14
180,606	-145,58
180,819	-194,73
181,031	5,97
181,243	63,32
181,456	-32,94
181,668	89,94
181,88	26,45
182,093	-71,85
182,305	-92,33
182,518	-10,41
182,73	69,46
182,942	-16,55
183,155	-41,13
183,367	10,07
183,579	-32,94
183,791	77,65
184,004	12,12
184,216	5,97
184,428	-43,18
184,641	38,74
184,853	14,17
185,065	-67,75
185,277	-2,22
185,49	59,22
185,702	-10,41
185,914	-47,27
186,126	30,55
186,338	-16,55
186,551	16,21
186,763	20,31
186,975	20,31
187,187	30,55
187,399	3,93
187,612	3,93
187,824	-57,51
188,036	1,88
188,248	42,84
188,46	5,97
188,672	63,32
188,885	-34,99
189,097	63,32
189,309	5,97
189,521	-2,22
189,733	30,55
189,945	3,93
190,157	46,93
190,369	34,64
190,581	36,69
190,794	14,17
191,006	-61,61
191,218	-75,95
191,43	69,46
191,642	36,69
191,854	-45,23
192,066	20,31
192,278	22,36
192,49	-57,51
192,702	57,17
192,914	46,93
193,126	-18,6
193,338	3,93
193,55	46,93
193,762	10,07
193,974	-12,46
194,186	-37,03
194,398	20,31
194,61	-4,27
194,822	26,45
195,034	32,6
195,246	69,46
195,457	-18,6
195,669	159,57
195,881	-12,46
196,093	53,08
196,305	22,36
196,517	-14,51
196,729	20,31
196,941	28,5
197,153	59,22
197,365	75,6
197,576	-20,65
197,788	38,74
198	-2,22
198,212	126,8
198,424	63,32
198,636	12,12
198,847	-45,23
199,059	46,93
199,271	-45,23
199,483	55,12
199,695	55,12
199,906	3,93
200,118	-4,27
200,33	75,6
200,542	368,46
200,753	44,88
200,965	20,31
201,177	32,6
201,389	63,32
201,6	-80,04
201,812	12,12
202,024	73,56
202,235	8,02
202,447	61,27
202,659	112,47
202,871	-8,36
203,082	55,12
203,294	8,02
203,506	-26,79
203,717	12,12
203,929	32,6
204,141	-10,41
204,352	40,79
204,564	-0,17
204,775	-30,89
204,987	89,94
205,199	65,36
205,41	20,31
205,622	59,22
205,833	61,27
206,045	30,55
206,257	55,12
206,468	26,45
206,68	-22,7
206,891	-20,65
207,103	44,88
207,314	-75,95
207,526	55,12
207,737	-28,84
207,949	-14,51
208,16	55,12
208,372	28,5
208,583	79,7
208,795	20,31
209,006	89,94
209,218	12,12
209,429	-30,89
209,641	20,31
209,852	-32,94
210,064	-2,22
210,275	-55,47
210,487	81,75
210,698	132,95
210,909	153,43
211,121	61,27
211,332	14,17
211,544	-0,17
211,755	83,8
211,966	94,04
212,178	-0,17
212,389	149,33
212,6	28,5
212,812	110,42
213,023	20,31
213,234	30,55
213,446	46,93
213,657	-43,18
213,868	-2,22
214,08	61,27
214,291	79,7
214,502	28,5
214,714	-65,71
214,925	59,22
215,136	18,26
215,347	10,07
215,559	-34,99
215,77	-34,99
215,981	57,17
216,192	-84,14
216,404	77,65
216,615	26,45
216,826	73,56
217,037	14,17
217,249	96,08
217,46	61,27
217,671	57,17
217,882	-34,99
218,093	14,17
218,304	14,17
218,516	5,97
218,727	14,17
218,938	-16,55
219,149	79,7
219,36	71,51
219,571	1,88
219,782	-16,55
219,993	46,93
220,205	-2,22
220,416	55,12
220,627	46,93
220,838	96,08
221,049	126,8
221,26	108,37
221,471	42,84
221,682	12,12
221,893	40,79
222,104	-26,79
222,315	-10,41
222,526	-10,41
222,737	10,07
222,948	30,55
223,159	116,56
223,37	-18,6
223,581	8,02
223,792	-22,7
224,003	75,6
224,214	89,94
224,425	10,07
224,636	-8,36
224,847	114,52
225,058	3,93
225,269	38,74
225,48	-71,85
225,691	57,17
225,902	18,26
226,112	40,79
226,323	-26,79
226,534	8,02
226,745	-18,6
226,956	69,46
227,167	63,32
227,378	104,28
227,589	38,74
227,799	36,69
228,01	53,08
228,221	-6,31
228,432	30,55
228,643	-67,75
228,853	81,75
229,064	3,93
229,275	3,93
229,486	-14,51
229,697	34,64
229,907	36,69
230,118	5,97
230,329	-18,6
230,54	8,02
230,75	32,6
230,961	67,41
231,172	-22,7
231,383	-26,79
231,593	83,8
231,804	-24,75
232,015	48,98
232,225	5,97
232,436	10,07
232,647	87,89
232,857	67,41
233,068	14,17
233,279	106,32
233,489	53,08
233,7	51,03
233,91	28,5
234,121	-30,89
234,332	18,26
234,542	1,88
234,753	3,93
234,964	98,13
235,174	-18,6
235,385	26,45
235,595	-12,46
235,806	59,22
236,016	-0,17
236,227	26,45
236,437	-20,65
236,648	14,17
236,858	28,5
237,069	55,12
237,279	12,12
237,49	-14,51
237,7	-2,22
237,911	-18,6
238,121	-28,84
238,332	-0,17
238,542	-45,23
238,753	32,6
238,963	-39,08
239,174	71,51
239,384	14,17
239,595	-20,65
239,805	-61,61
240,015	1,88
240,226	14,17
240,436	-41,13
240,647	55,12
240,857	-22,7
241,067	51,03
241,278	151,38
241,488	-14,51
241,698	38,74
241,909	59,22
242,119	28,5
242,329	63,32
242,54	5,97
242,75	114,52
242,96	-59,56
243,171	-63,66
243,381	28,5
243,591	18,26
243,801	46,93
244,012	159,57
244,222	-18,6
244,432	-47,27
244,642	-90,28
244,853	-39,08
245,063	40,79
245,273	36,69
245,483	77,65
245,694	36,69
245,904	-4,27
246,114	44,88
246,324	36,69
246,534	10,07
246,744	26,45
246,955	-39,08
247,165	22,36
247,375	118,61
247,585	10,07
247,795	75,6
248,005	16,21
248,215	69,46
248,425	61,27
248,636	155,47
248,846	-6,31
249,056	1,88
249,266	-104,62
249,476	1,88
249,686	71,51
249,896	-2,22
250,106	30,55
250,316	-67,75
250,526	89,94
250,736	-18,6
250,946	128,85
251,156	65,36
251,366	-37,03
251,576	61,27
251,786	48,98
251,996	20,31
252,206	-73,9
252,416	32,6
252,626	-14,51
252,836	-67,75
253,046	-53,42
253,256	61,27
253,466	18,26
253,676	-6,31
253,885	63,32
254,095	-2,22
254,305	91,99
254,515	96,08
254,725	-2,22
254,935	5,97
255,145	18,26
255,355	-20,65
255,564	61,27
255,774	20,31
255,984	89,94
256,194	87,89
256,404	10,07
256,614	61,27
256,823	26,45
257,033	77,65
257,243	100,18
257,453	-18,6
257,662	63,32
257,872	14,17
258,082	-10,41
258,292	-82,09
258,501	141,14
258,711	118,61
258,921	126,8
259,131	-6,31
259,34	10,07
259,55	28,5
259,76	55,12
259,969	-16,55
260,179	-20,65
260,389	61,27
260,598	-0,17
260,808	53,08
261,018	57,17
261,227	34,64
261,437	5,97
261,647	81,75
261,856	22,36
262,066	69,46
262,275	132,95
262,485	32,6
262,694	85,84
262,904	36,69
263,114	57,17
263,323	30,55
263,533	-4,27
263,742	-32,94
263,952	26,45
264,161	-63,66
264,371	26,45
264,58	67,41
264,79	77,65
264,999	69,46
265,209	73,56
265,418	-24,75
265,628	110,42
265,837	30,55
266,047	46,93
266,256	91,99
266,466	-61,61
266,675	14,17
266,884	24,4
267,094	100,18
267,303	132,95
267,513	71,51
267,722	75,6
267,931	20,31
268,141	-12,46
268,35	34,64
268,559	42,84
268,769	36,69
268,978	-26,79
269,187	-6,31
269,397	-12,46
269,606	14,17
269,815	-45,23
270,025	40,79
270,234	18,26
270,443	-34,99
270,653	75,6
270,862	22,36
271,071	3,93
271,28	14,17
271,49	12,12
271,699	32,6
271,908	32,6
272,117	69,46
272,327	14,17
272,536	-51,37
272,745	-43,18
272,954	44,88
273,163	63,32
273,372	141,14
273,582	22,36
273,791	87,89
274	-6,31
274,209	-4,27
274,418	98,13
274,627	102,23
274,836	44,88
275,046	40,79
275,255	30,55
275,464	28,5
275,673	-20,65
275,882	3,93
276,091	28,5
276,3	71,51
276,509	36,69
276,718	30,55
276,927	-18,6
277,136	53,08
277,345	79,7
277,554	20,31
277,763	81,75
277,972	46,93
278,181	67,41
278,39	-2,22
278,599	28,5
278,808	10,07
279,017	51,03
279,226	-34,99
279,435	30,55
279,644	26,45
279,853	75,6
280,062	184,15
280,271	30,55
280,48	42,84
280,688	5,97
280,897	87,89
281,106	-6,31
281,315	-43,18
281,524	48,98
281,733	5,97
281,942	40,79
282,151	-43,18
282,359	55,12
282,568	-69,8
282,777	59,22
282,986	-14,51
283,195	75,6
283,403	44,88
283,612	96,08
283,821	36,69
284,03	-14,51
284,238	69,46
284,447	73,56
284,656	-2,22
284,865	69,46
285,073	22,36
285,282	-10,41
285,491	110,42
285,699	-14,51
285,908	81,75
286,117	51,03
286,325	108,37
286,534	135
286,743	-4,27
286,951	-10,41
287,16	24,4
287,369	51,03
287,577	59,22
287,786	34,64
287,995	12,12
288,203	-28,84
288,412	87,89
288,62	55,12
288,829	-4,27
289,037	-75,95
289,246	20,31
289,455	-22,7
289,663	46,93
289,872	57,17
290,08	28,5
290,289	53,08
290,497	-26,79
290,706	104,28
290,914	22,36
291,123	5,97
291,331	42,84
291,54	44,88
291,748	71,51
291,957	26,45
292,165	30,55
292,373	-39,08
292,582	-10,41
292,79	124,76
292,999	67,41
293,207	100,18
293,415	-12,46
293,624	28,5
293,832	-0,17
294,041	55,12
294,249	55,12
294,457	-18,6
294,666	81,75
294,874	-2,22
295,082	169,81
295,291	55,12
295,499	55,12
295,707	63,32
295,915	46,93
296,124	38,74
296,332	83,8
296,54	38,74
296,749	44,88
296,957	-26,79
297,165	8,02
297,373	24,4
297,581	-55,47
297,79	22,36
297,998	-47,27
298,206	-12,46
298,414	30,55
298,622	75,6
298,831	79,7
299,039	5,97
299,247	40,79
299,455	44,88
299,663	96,08
299,871	12,12
300,08	69,46
300,288	28,5
300,496	-10,41
300,704	65,36
300,912	5,97
301,12	38,74
301,328	10,07
301,536	-12,46
301,744	-45,23
301,952	48,98
302,16	-2,22
302,368	-24,75
302,576	46,93
302,784	147,28
302,992	-49,32
303,2	34,64
303,408	28,5
303,616	3,93
303,824	79,7
304,032	79,7
304,24	53,08
304,448	96,08
304,656	16,21
304,864	120,66
305,072	63,32
305,28	46,93
305,488	51,03
305,696	18,26
305,904	46,93
306,111	12,12
306,319	26,45
306,527	46,93
306,735	83,8
306,943	59,22
307,151	71,51
307,359	40,79
307,566	57,17
307,774	67,41
307,982	53,08
308,19	-2,22
308,398	5,97
308,605	30,55
308,813	20,31
309,021	104,28
309,229	-2,22
309,436	-12,46
309,644	18,26
309,852	8,02
310,06	42,84
310,267	63,32
310,475	12,12
310,683	59,22
310,89	110,42
311,098	153,43
311,306	32,6
311,513	42,84
311,721	3,93
311,929	30,55
312,136	79,7
312,344	-43,18
312,552	108,37
312,759	-45,23
312,967	46,93
313,174	-22,7
313,382	30,55
313,589	91,99
313,797	77,65
314,005	22,36
314,212	124,76
314,42	46,93
314,627	32,6
314,835	-18,6
315,042	79,7
315,25	-61,61
315,457	-53,42
315,665	-47,27
315,872	55,12
316,08	116,56
316,287	-34,99
316,495	325,46
316,702	-43,18
316,909	-8,36
317,117	141,14
317,324	-4,27
317,532	87,89
317,739	-14,51
317,946	-0,17
318,154	-71,85
318,361	16,21
318,569	-2,22
318,776	-77,99
318,983	-6,31
319,191	16,21
319,398	-10,41
319,605	85,84
319,813	53,08
320,02	-18,6
320,227	83,8
320,434	55,12
320,642	-39,08
320,849	-20,65
321,056	22,36
321,264	12,12
321,471	63,32
321,678	61,27
321,885	53,08
322,092	22,36
322,3	14,17
322,507	-0,17
322,714	38,74
322,921	55,12
323,128	-24,75
323,336	-22,7
323,543	75,6
323,75	85,84
323,957	12,12
324,164	-34,99
324,371	75,6
324,578	-57,51
324,786	38,74
324,993	63,32
325,2	12,12
325,407	5,97
325,614	28,5
325,821	79,7
326,028	157,52
326,235	96,08
326,442	28,5
326,649	-16,55
326,856	81,75
327,063	-10,41
327,27	-2,22
327,477	-6,31
327,684	-16,55
327,891	-12,46
328,098	96,08
328,305	24,4
328,512	-18,6
328,719	128,85
328,926	124,76
329,133	5,97
329,34	83,8
329,546	89,94
329,753	79,7
329,96	-47,27
330,167	34,64
330,374	53,08
330,581	12,12
330,788	26,45
330,995	94,04
331,201	10,07
331,408	51,03
331,615	-41,13
331,822	38,74
332,029	22,36
332,235	-2,22
332,442	-51,37
332,649	81,75
332,856	36,69
333,062	22,36
333,269	26,45
333,476	42,84
333,683	57,17
333,889	18,26
334,096	89,94
334,303	139,09
334,509	-8,36
334,716	38,74
334,923	102,23
335,129	12,12
335,336	-18,6
335,543	79,7
335,749	8,02
335,956	96,08
336,163	-20,65
336,369	53,08
336,576	18,26
336,782	104,28
336,989	38,74
337,196	-14,51
337,402	18,26
337,609	-22,7
337,815	36,69
338,022	16,21
338,228	22,36
338,435	192,34
338,641	75,6
338,848	120,66
339,054	87,89
339,261	-51,37
339,467	-39,08
339,674	1,88
339,88	30,55
340,087	-4,27
340,293	12,12
340,5	55,12
340,706	26,45
340,912	-12,46
341,119	-0,17
341,325	40,79
341,532	-0,17
341,738	-43,18
341,944	44,88
342,151	14,17
342,357	-14,51
342,563	61,27
342,77	20,31
342,976	53,08
343,182	59,22
343,389	5,97
343,595	-59,56
343,801	-43,18
344,007	69,46
344,214	3,93
344,42	59,22
344,626	-32,94
344,832	5,97
345,039	61,27
345,245	32,6
345,451	30,55
345,657	65,36
345,864	-4,27
346,07	-6,31
346,276	91,99
346,482	130,9
346,688	118,61
346,894	40,79
347,1	26,45
347,307	-6,31
347,513	51,03
347,719	38,74
347,925	61,27
348,131	-45,23
348,337	118,61
348,543	5,97
348,749	-20,65
348,955	26,45
349,161	-65,71
349,367	79,7
349,573	-10,41
349,779	12,12
349,985	-20,65
350,191	-67,75
350,397	46,93
350,603	28,5
350,809	55,12
351,015	3,93
351,221	91,99
351,427	110,42
351,633	61,27
351,839	71,51
352,045	-2,22
352,251	116,56
352,457	73,56
352,663	-0,17
352,869	34,64
353,075	59,22
353,28	-49,32
353,486	71,51
353,692	-6,31
353,898	20,31
354,104	1,88
354,31	104,28
354,515	-10,41
354,721	63,32
354,927	32,6
355,133	89,94
355,339	69,46
355,544	110,42
355,75	118,61
355,956	61,27
356,162	77,65
356,367	8,02
356,573	104,28
356,779	55,12
356,984	137,04
357,19	116,56
357,396	1,88
357,602	96,08
357,807	3,93
358,013	30,55
358,218	28,5
358,424	-6,31
358,63	-4,27
358,835	-4,27
359,041	-4,27
359,247	28,5
359,452	-18,6
359,658	-22,7
359,863	83,8
360,069	110,42
360,274	85,84
360,48	137,04
360,685	22,36
360,891	94,04
361,097	38,74
361,302	53,08
361,508	110,42
361,713	-18,6
361,918	94,04
362,124	-20,65
362,329	3,93
362,535	1,88
362,74	34,64
362,946	79,7
363,151	3,93
363,357	53,08
363,562	-4,27
363,767	-8,36
363,973	-2,22
364,178	51,03
364,383	20,31
364,589	57,17
364,794	-10,41
365	57,17
365,205	-6,31
365,41	-22,7
365,615	91,99
365,821	-77,99
366,026	91,99
366,231	44,88
366,437	94,04
366,642	-59,56
366,847	79,7
367,052	55,12
367,258	34,64
367,463	38,74
367,668	32,6
367,873	151,38
368,078	75,6
368,284	-59,56
368,489	-67,75
368,694	44,88
368,899	38,74
369,104	71,51
369,309	112,47
369,515	5,97
369,72	126,8
369,925	18,26
370,13	12,12
370,335	75,6
370,54	65,36
370,745	38,74
370,95	-73,9
371,155	180,05
371,36	34,64
371,565	26,45
371,77	81,75
371,975	38,74
372,18	55,12
372,385	120,66
372,59	165,71
372,795	22,36
373	42,84
373,205	55,12
373,41	67,41
373,615	-51,37
373,82	18,26
374,025	46,93
374,23	-37,03
374,435	87,89
374,64	124,76
374,845	20,31
375,05	102,23
375,254	55,12
375,459	-10,41
375,664	44,88
375,869	44,88
376,074	36,69
376,279	10,07
376,483	55,12
376,688	-127,14
376,893	67,41
377,098	46,93
377,303	71,51
377,507	79,7
377,712	128,85
377,917	118,61
378,122	96,08
378,326	61,27
378,531	55,12
378,736	-10,41
378,94	59,22
379,145	77,65
379,35	-2,22
379,554	42,84
379,759	10,07
379,964	67,41
380,168	38,74
380,373	100,18
380,578	163,67
380,782	46,93
380,987	75,6
381,191	38,74
381,396	-12,46
381,601	94,04
381,805	85,84
382,01	167,76
382,214	85,84
382,419	137,04
382,623	77,65
382,828	48,98
383,032	-0,17
383,237	-49,32
383,441	18,26
383,646	67,41
383,85	-28,84
384,055	100,18
384,259	12,12
384,464	-16,55
384,668	1,88
384,872	71,51
385,077	81,75
385,281	30,55
385,486	-28,84
385,69	67,41
385,894	194,39
386,099	108,37
386,303	-32,94
386,507	55,12
386,712	91,99
386,916	30,55
387,12	-18,6
387,325	126,8
387,529	40,79
387,733	71,51
387,937	-22,7
388,142	-2,22
388,346	-63,66
388,55	137,04
388,754	36,69
388,959	-2,22
389,163	30,55
389,367	102,23
389,571	69,46
389,775	81,75
389,98	112,47
390,184	67,41
390,388	30,55
390,592	120,66
390,796	53,08
391	96,08
391,204	-45,23
391,409	34,64
391,613	26,45
391,817	22,36
392,021	124,76
392,225	104,28
392,429	-22,7
392,633	22,36
392,837	14,17
393,041	18,26
393,245	22,36
393,449	-4,27
393,653	46,93
393,857	63,32
394,061	96,08
394,265	22,36
394,469	77,65
394,673	46,93
394,877	16,21
395,081	87,89
395,285	145,24
395,489	102,23
395,693	55,12
395,896	5,97
396,1	30,55
396,304	71,51
396,508	10,07
396,712	40,79
396,916	94,04
397,12	83,8
397,323	55,12
397,527	75,6
397,731	65,36
397,935	53,08
398,139	32,6
398,342	46,93
398,546	-24,75
398,75	-4,27
398,954	104,28
399,157	122,71
399,361	67,41
399,565	14,17
399,769	102,23
399,972	87,89
400,176	96,08
400,38	18,26
400,583	-22,7
400,787	71,51
400,991	208,72
401,194	116,56
401,398	116,56
401,601	71,51
401,805	104,28
402,009	98,13
402,212	100,18
402,416	190,29
402,619	-6,31
402,823	112,47
403,026	57,17
403,23	59,22
403,433	175,95
403,637	79,7
403,841	98,13
404,044	46,93
404,247	61,27
404,451	53,08
404,654	159,57
404,858	243,54
405,061	124,76
405,265	16,21
405,468	83,8
405,672	38,74
405,875	104,28
406,078	81,75
406,282	120,66
406,485	38,74
406,689	96,08
406,892	198,48
407,095	94,04
407,299	91,99
407,502	147,28
407,705	5,97
407,909	190,29
408,112	143,19
408,315	137,04
408,518	202,58
408,722	153,43
408,925	204,63
409,128	175,95
409,331	196,43
409,535	253,78
409,738	339,79
409,941	345,94
410,144	182,1
410,347	241,49
410,551	243,54
410,754	218,96
410,957	210,77
411,16	231,25
411,363	247,63
411,566	315,22
411,769	259,92
411,973	218,96
412,176	388,94
412,379	288,59
412,582	358,22
412,785	362,32
412,988	259,92
413,191	311,12
413,394	339,79
413,597	302,93
413,8	360,27
414,003	544,59
414,206	333,65
414,409	440,14
414,612	364,37
414,815	362,32
415,018	431,95
415,221	386,9
415,424	616,27
415,627	542,54
415,83	567,12
416,033	612,17
416,235	628,56
416,438	536,4
416,641	685,9
416,844	675,66
417,047	618,32
417,25	681,8
417,453	749,39
417,655	657,23
417,858	704,33
418,061	669,52
418,264	812,87
418,467	917,32
418,669	819,02
418,872	888,65
419,075	806,73
419,278	855,88
419,48	1015,62
419,683	989
419,886	950,09
420,089	1066,82
420,291	1081,16
420,494	1019,72
420,697	993,09
420,899	1238,85
421,102	1115,97
421,305	1204,03
421,507	1183,56
421,71	1263,43
421,912	1253,19
422,115	1288
422,318	1240,9
422,52	1316,67
422,723	1480,51
422,925	1470,27
423,128	1451,84
423,33	1439,55
423,533	1347,39
423,735	1527,61
423,938	1509,18
424,14	1673,02
424,343	1732,41
424,545	1742,65
424,748	1673,02
424,95	1599,29
425,153	1865,53
425,355	1761,08
425,558	1906,49
425,76	1978,17
425,962	1937,21
426,165	1869,62
426,367	2209,59
426,57	2135,86
426,772	2021,17
426,974	2172,72
427,177	2088,76
427,379	2191,16
427,581	2314,03
427,784	2275,12
427,986	2252,59
428,188	2533,17
428,39	2510,64
428,593	2373,43
428,795	2740,01
428,997	2641,71
429,2	2680,62
429,402	2692,91
429,604	2854,7
429,806	2764,59
430,008	2836,27
430,211	2950,95
430,413	2832,17
430,615	2973,48
430,817	3139,37
431,019	3172,13
431,221	3077,93
431,423	3016,49
431,626	3172,13
431,828	3311,39
432,03	3245,86
432,232	3417,89
432,434	3528,48
432,636	3637,02
432,838	3485,47
433,04	3698,46
433,242	3698,46
433,444	3641,12
433,646	3796,76
433,848	3821,34
434,05	3895,07
434,252	3776,28
434,454	3882,78
434,656	4009,75
434,858	4194,07
435,06	4165,4
435,262	4278,04
435,464	4427,54
435,666	4419,35
435,868	4388,63
436,07	4501,26
436,271	4798,22
436,473	4679,44
436,675	4816,65
436,877	4812,56
437,079	4695,82
437,281	4988,68
437,482	4996,87
437,684	5334,79
437,886	5074,7
438,088	5193,48
438,29	5345,03
438,491	5463,81
438,693	5461,76
438,895	5601,02
439,097	6041,34
439,298	5703,42
439,5	5830,4
439,702	5895,93
439,903	5500,67
440,105	6266,61
440,307	6739,69
440,508	6516,47
440,71	6649,58
440,912	6590,19
441,113	6469,36
441,315	6756,08
441,517	6921,96
441,718	6954,73
441,92	6850,28
442,121	6960,88
442,323	7247,59
442,524	7440,1
442,726	7794,4
442,928	7556,83
443,129	7763,68
443,331	7532,26
443,532	7710,43
443,734	7796,45
443,935	8146,65
444,136	7585,51
444,338	8380,12
444,539	8316,63
444,741	8408,79
444,942	8316,63
445,144	8607,44
445,345	8806,09
445,546	8867,53
445,748	8492,76
445,949	8535,76
446,151	8720,08
446,352	9047,76
