Data from LED  orange_USB4F035431__0__13-01-51-523.txt Node

Date: Tue Feb 02 13:01:51 CET 2021
User: Praktikum
Spectrometer: USB4F03543
Trigger mode: 4
Integration Time (sec): 4,000000E-1
Scans to average: 1
Electric dark correction enabled: true
Nonlinearity correction enabled: false
Boxcar width: 0
XAxis mode: Wavelengths
Number of Pixels in Spectrum: 3648
>>>>>Begin Spectral Data<<<<<
179,969	-662,52
180,181	-662,52
180,394	-662,52
180,606	-654,33
180,819	-627,7
181,031	209,92
181,243	463,86
181,456	-222,2
181,668	-140,29
181,88	236,54
182,093	19,46
182,305	-293,88
182,518	-181,25
182,73	297,98
182,942	80,89
183,155	-203,77
183,367	-267,26
183,579	308,22
183,791	259,07
184,004	-209,92
184,216	-152,57
184,428	44,03
184,641	111,61
184,853	-261,12
185,065	-193,53
185,277	168,96
185,49	293,88
185,702	-199,68
185,914	-209,92
186,126	39,94
186,338	138,24
186,551	-324,6
186,763	-160,77
186,975	-113,66
187,187	101,37
187,399	-304,12
187,612	-195,58
187,824	62,46
188,036	166,91
188,248	-119,81
188,46	-263,16
188,672	197,63
188,885	91,13
189,097	-74,75
189,309	-214,01
189,521	125,95
189,733	162,81
189,945	-134,14
190,157	-80,89
190,369	60,42
190,581	-33,79
190,794	-154,62
191,006	-177,15
191,218	78,85
191,43	183,29
191,642	-193,53
191,854	-193,53
192,066	330,75
192,278	224,25
192,49	-332,79
192,702	-175,1
192,914	146,43
193,126	78,85
193,338	-140,29
193,55	-93,18
193,762	203,77
193,974	-84,99
194,186	-271,36
194,398	-197,63
194,61	211,96
194,822	187,39
195,034	-246,78
195,246	-9,22
195,457	125,95
195,669	269,31
195,881	-201,72
196,093	-343,03
196,305	99,33
196,517	-168,96
196,729	-173,05
196,941	-191,49
197,153	322,56
197,365	392,19
197,576	-293,88
197,788	-175,1
198	195,58
198,212	349,18
198,424	-203,77
198,636	-273,4
198,847	-82,94
199,059	152,57
199,271	-242,68
199,483	-222,2
199,695	168,96
199,906	173,05
200,118	-228,35
200,33	-166,91
200,542	877,55
200,753	74,75
200,965	-168,96
201,177	-187,39
201,389	130,05
201,6	-144,38
201,812	-203,77
202,024	-181,25
202,235	-1,02
202,447	250,88
202,659	-203,77
202,871	-150,53
203,082	78,85
203,294	-111,61
203,506	-152,57
203,717	-193,53
203,929	136,19
204,141	-15,36
204,352	-181,25
204,564	-168,96
204,775	54,27
204,987	279,55
205,199	-236,54
205,41	-99,33
205,622	275,45
205,833	15,36
206,045	-132,09
206,257	-168,96
206,468	-11,26
206,68	-19,46
206,891	-211,96
207,103	-226,3
207,314	-144,38
207,526	158,72
207,737	-283,64
207,949	-130,05
208,16	72,7
208,372	197,63
208,583	-185,34
208,795	-175,1
209,006	93,18
209,218	146,43
209,429	-287,74
209,641	-156,67
209,852	95,23
210,064	148,48
210,275	-242,68
210,487	-113,66
210,698	265,21
210,909	193,53
211,121	-121,85
211,332	-130,05
211,544	177,15
211,755	334,84
211,966	-37,89
212,178	-218,11
212,389	461,82
212,6	5,12
212,812	23,55
213,023	-218,11
213,234	257,02
213,446	117,76
213,657	-293,88
213,868	-166,91
214,08	371,71
214,291	214,01
214,502	-168,96
214,714	-242,68
214,925	-27,65
215,136	-1,02
215,347	-130,05
215,559	-242,68
215,77	-158,72
215,981	308,22
216,192	-281,6
216,404	-164,86
216,615	195,58
216,826	201,72
217,037	-183,29
217,249	-214,01
217,46	265,21
217,671	87,04
217,882	-195,58
218,093	-250,88
218,304	101,37
218,516	220,16
218,727	-316,41
218,938	-209,92
219,149	396,28
219,36	82,94
219,571	-312,32
219,782	-287,74
219,993	322,56
220,205	7,17
220,416	-95,23
220,627	-44,03
220,838	220,16
221,049	621,56
221,26	-207,87
221,471	-267,26
221,682	209,92
221,893	383,99
222,104	-248,83
222,315	-291,84
222,526	-115,71
222,737	37,89
222,948	-320,51
223,159	-171,01
223,37	72,7
223,581	-17,41
223,792	-222,2
224,003	-119,81
224,214	-82,94
224,425	201,72
224,636	-244,73
224,847	-44,03
225,058	130,05
225,269	158,72
225,48	-226,3
225,691	-336,89
225,902	125,95
226,112	7,17
226,323	-324,6
226,534	-140,29
226,745	23,55
226,956	-72,7
227,167	-199,68
227,378	-117,76
227,589	33,79
227,799	392,19
228,01	-242,68
228,221	-265,21
228,432	68,61
228,643	-162,81
228,853	-168,96
229,064	-230,4
229,275	158,72
229,486	-27,65
229,697	-226,3
229,907	-168,96
230,118	97,28
230,329	29,7
230,54	-261,12
230,75	-160,77
230,961	254,97
231,172	56,32
231,383	-234,49
231,593	-281,6
231,804	-23,55
232,015	146,43
232,225	-189,44
232,436	-273,4
232,647	185,34
232,857	297,98
233,068	-234,49
233,279	-132,09
233,489	70,65
233,7	-1,02
233,91	-246,78
234,121	-230,4
234,332	148,48
234,542	101,37
234,753	-209,92
234,964	-78,85
235,174	35,84
235,385	211,96
235,595	-209,92
235,806	-158,72
236,016	-103,42
236,227	-99,33
236,437	-263,16
236,648	-191,49
236,858	150,53
237,069	-7,17
237,279	-226,3
237,49	-240,64
237,7	224,25
237,911	109,57
238,121	-199,68
238,332	-254,97
238,542	175,1
238,753	54,27
238,963	-244,73
239,174	-250,88
239,384	66,56
239,595	80,89
239,805	-197,63
240,015	-214,01
240,226	54,27
240,436	101,37
240,647	-263,16
240,857	-179,2
241,067	101,37
241,278	715,77
241,488	-324,6
241,698	-119,81
241,909	-84,99
242,119	60,42
242,329	-218,11
242,54	-197,63
242,75	95,23
242,96	-74,75
243,171	-168,96
243,381	-199,68
243,591	-76,8
243,801	273,4
244,012	-74,75
244,222	-199,68
244,432	-138,24
244,642	29,7
244,853	-228,35
245,063	-181,25
245,273	97,28
245,483	87,04
245,694	-134,14
245,904	-166,91
246,114	187,39
246,324	-95,23
246,534	-193,53
246,744	-269,31
246,955	-230,4
247,165	396,28
247,375	-41,98
247,585	-173,05
247,795	74,75
248,005	189,44
248,215	-166,91
248,425	-62,46
248,636	541,69
248,846	-23,55
249,056	-285,69
249,266	-254,97
249,476	144,38
249,686	68,61
249,896	-252,92
250,106	-97,28
250,316	48,13
250,526	470,01
250,736	-269,31
250,946	-11,26
251,156	359,42
251,366	119,81
251,576	-168,96
251,786	-103,42
251,996	19,46
252,206	-50,18
252,416	-175,1
252,626	-246,78
252,836	-160,77
253,046	105,47
253,256	-117,76
253,466	-105,47
253,676	72,7
253,885	226,3
254,095	-271,36
254,305	-121,85
254,515	123,9
254,725	80,89
254,935	-263,16
255,145	-144,38
255,355	242,68
255,564	50,18
255,774	-228,35
255,984	97,28
256,194	130,05
256,404	25,6
256,614	-123,9
256,823	-72,7
257,033	80,89
257,243	209,92
257,453	-343,03
257,662	-177,15
257,872	261,12
258,082	64,51
258,292	-220,16
258,501	-113,66
258,711	689,14
258,921	412,67
259,131	-230,4
259,34	-166,91
259,55	87,04
259,76	-27,65
259,969	-193,53
260,179	-183,29
260,389	93,18
260,598	326,65
260,808	-168,96
261,018	-152,57
261,227	285,69
261,437	-37,89
261,647	-175,1
261,856	-277,5
262,066	171,01
262,275	408,57
262,485	-232,44
262,694	-89,09
262,904	82,94
263,114	183,29
263,323	-214,01
263,533	-181,25
263,742	31,74
263,952	89,09
264,161	-232,44
264,371	-207,87
264,58	-17,41
264,79	46,08
264,999	-125,95
265,209	-99,33
265,418	230,4
265,628	121,85
265,837	-238,59
266,047	-175,1
266,256	416,76
266,466	19,46
266,675	-220,16
266,884	-214,01
267,094	203,77
267,303	275,45
267,513	-224,25
267,722	48,13
267,931	183,29
268,141	-35,84
268,35	-209,92
268,559	-189,44
268,769	-50,18
268,978	-226,3
269,187	-244,73
269,397	-193,53
269,606	-119,81
269,815	-46,08
270,025	-220,16
270,234	-158,72
270,443	-164,86
270,653	74,75
270,862	-277,5
271,071	-171,01
271,28	-27,65
271,49	119,81
271,699	-226,3
271,908	-138,24
272,117	125,95
272,327	52,22
272,536	-320,51
272,745	-222,2
272,954	17,41
273,163	113,66
273,372	218,11
273,582	-160,77
273,791	132,09
274	-50,18
274,209	-66,56
274,418	9,22
274,627	242,68
274,836	-39,94
275,046	58,37
275,255	-76,8
275,464	-7,17
275,673	-58,37
275,882	37,89
276,091	-91,13
276,3	130,05
276,509	80,89
276,718	-3,07
276,927	-44,03
277,136	162,81
277,345	11,26
277,554	46,08
277,763	89,09
277,972	166,91
278,181	187,39
278,39	-87,04
278,599	-21,5
278,808	-68,61
279,017	193,53
279,226	-134,14
279,435	-62,46
279,644	80,89
279,853	230,4
280,062	324,6
280,271	-128
280,48	-23,55
280,688	29,7
280,897	-11,26
281,106	-82,94
281,315	-66,56
281,524	111,61
281,733	39,94
281,942	23,55
282,151	58,37
282,359	152,57
282,568	-162,81
282,777	5,12
282,986	39,94
283,195	168,96
283,403	31,74
283,612	-97,28
283,821	7,17
284,03	17,41
284,238	201,72
284,447	-15,36
284,656	-21,5
284,865	191,49
285,073	-17,41
285,282	-21,5
285,491	78,85
285,699	-160,77
285,908	37,89
286,117	-70,65
286,325	99,33
286,534	330,75
286,743	19,46
286,951	27,65
287,16	175,1
287,369	70,65
287,577	-64,51
287,786	-39,94
287,995	103,42
288,203	-119,81
288,412	82,94
288,62	-29,7
288,829	37,89
289,037	-5,12
289,246	-76,8
289,455	-93,18
289,663	97,28
289,872	183,29
290,08	62,46
290,289	111,61
290,497	-76,8
290,706	46,08
290,914	-277,5
291,123	-56,32
291,331	54,27
291,54	185,34
291,748	173,05
291,957	27,65
292,165	68,61
292,373	-117,76
292,582	-95,23
292,79	62,46
292,999	160,77
293,207	80,89
293,415	-62,46
293,624	-193,53
293,832	48,13
294,041	154,62
294,249	-58,37
294,457	-87,04
294,666	99,33
294,874	-136,19
295,082	5,12
295,291	-5,12
295,499	19,46
295,707	134,14
295,915	-44,03
296,124	60,42
296,332	103,42
296,54	91,13
296,749	179,2
296,957	33,79
297,165	15,36
297,373	-72,7
297,581	-50,18
297,79	-58,37
297,998	-113,66
298,206	-93,18
298,414	-50,18
298,622	72,7
298,831	189,44
299,039	-48,13
299,247	62,46
299,455	-41,98
299,663	300,03
299,871	-29,7
300,08	-7,17
300,288	52,22
300,496	-13,31
300,704	-19,46
300,912	-19,46
301,12	-74,75
301,328	52,22
301,536	-3,07
301,744	-185,34
301,952	-54,27
302,16	-39,94
302,368	-9,22
302,576	29,7
302,784	44,03
302,992	-224,25
303,2	31,74
303,408	-87,04
303,616	-56,32
303,824	175,1
304,032	283,64
304,24	216,06
304,448	-11,26
304,656	-39,94
304,864	297,98
305,072	35,84
305,28	-9,22
305,488	29,7
305,696	187,39
305,904	11,26
306,111	-158,72
306,319	-35,84
306,527	15,36
306,735	68,61
306,943	50,18
307,151	62,46
307,359	-103,42
307,566	48,13
307,774	105,47
307,982	191,49
308,19	-105,47
308,398	-91,13
308,605	-93,18
308,813	-93,18
309,021	52,22
309,229	109,57
309,436	-103,42
309,644	191,49
309,852	209,92
310,06	52,22
310,267	-78,85
310,475	27,65
310,683	148,48
310,89	5,12
311,098	95,23
311,306	-27,65
311,513	171,01
311,721	-76,8
311,929	68,61
312,136	76,8
312,344	-7,17
312,552	91,13
312,759	-117,76
312,967	166,91
313,174	185,34
313,382	46,08
313,589	111,61
313,797	189,44
314,005	119,81
314,212	9,22
314,42	-150,53
314,627	89,09
314,835	-46,08
315,042	-19,46
315,25	-265,21
315,457	-148,48
315,665	-316,41
315,872	103,42
316,08	17,41
316,287	-35,84
316,495	506,87
316,702	-60,42
316,909	-181,25
317,117	207,87
317,324	117,76
317,532	234,49
317,739	-146,43
317,946	-9,22
318,154	-97,28
318,361	-84,99
318,569	52,22
318,776	-68,61
318,983	-91,13
319,191	13,31
319,398	5,12
319,605	54,27
319,813	117,76
320,02	-230,4
320,227	177,15
320,434	230,4
320,642	99,33
320,849	-44,03
321,056	1,02
321,264	115,71
321,471	99,33
321,678	1,02
321,885	-142,33
322,092	154,62
322,3	52,22
322,507	-185,34
322,714	-54,27
322,921	-74,75
323,128	-109,57
323,336	-84,99
323,543	37,89
323,75	234,49
323,957	72,7
324,164	56,32
324,371	56,32
324,578	-197,63
324,786	156,67
324,993	-17,41
325,2	-31,74
325,407	-265,21
325,614	68,61
325,821	162,81
326,028	121,85
326,235	142,33
326,442	119,81
326,649	-140,29
326,856	23,55
327,063	-44,03
327,27	50,18
327,477	-41,98
327,684	-232,44
327,891	-62,46
328,098	95,23
328,305	56,32
328,512	-181,25
328,719	185,34
328,926	277,5
329,133	-168,96
329,34	228,35
329,546	89,09
329,753	72,7
329,96	-138,24
330,167	103,42
330,374	31,74
330,581	183,29
330,788	-84,99
330,995	13,31
331,201	19,46
331,408	91,13
331,615	-44,03
331,822	-17,41
332,029	-9,22
332,235	60,42
332,442	-91,13
332,649	5,12
332,856	-130,05
333,062	23,55
333,269	-58,37
333,476	-13,31
333,683	9,22
333,889	87,04
334,096	5,12
334,303	11,26
334,509	3,07
334,716	37,89
334,923	9,22
335,129	-91,13
335,336	89,09
335,543	138,24
335,749	-52,22
335,956	130,05
336,163	-134,14
336,369	52,22
336,576	-21,5
336,782	39,94
336,989	-82,94
337,196	46,08
337,402	-17,41
337,609	-234,49
337,815	50,18
338,022	162,81
338,228	64,51
338,435	257,02
338,641	185,34
338,848	226,3
339,054	132,09
339,261	-150,53
339,467	-107,52
339,674	113,66
339,88	-33,79
340,087	-132,09
340,293	7,17
340,5	76,8
340,706	113,66
340,912	-171,01
341,119	-52,22
341,325	-35,84
341,532	-91,13
341,738	-56,32
341,944	134,14
342,151	60,42
342,357	-115,71
342,563	80,89
342,77	52,22
342,976	-11,26
343,182	138,24
343,389	-13,31
343,595	-37,89
343,801	-25,6
344,007	93,18
344,214	-103,42
344,42	89,09
344,626	-99,33
344,832	-152,57
345,039	-60,42
345,245	144,38
345,451	-27,65
345,657	37,89
345,864	-87,04
346,07	31,74
346,276	23,55
346,482	115,71
346,688	54,27
346,894	-7,17
347,1	44,03
347,307	-74,75
347,513	29,7
347,719	11,26
347,925	144,38
348,131	-205,82
348,337	15,36
348,543	-80,89
348,749	-19,46
348,955	87,04
349,161	-158,72
349,367	66,56
349,573	283,64
349,779	1,02
349,985	-31,74
350,191	29,7
350,397	115,71
350,603	58,37
350,809	-97,28
351,015	109,57
351,221	-80,89
351,427	78,85
351,633	56,32
351,839	150,53
352,045	62,46
352,251	105,47
352,457	-60,42
352,663	103,42
352,869	-46,08
353,075	58,37
353,28	-111,61
353,486	-31,74
353,692	-9,22
353,898	-95,23
354,104	-140,29
354,31	146,43
354,515	-97,28
354,721	89,09
354,927	-15,36
355,133	140,29
355,339	-5,12
355,544	-17,41
355,75	58,37
355,956	54,27
356,162	54,27
356,367	-171,01
356,573	107,52
356,779	-60,42
356,984	142,33
357,19	218,11
357,396	-3,07
357,602	484,34
357,807	60,42
358,013	-13,31
358,218	5,12
358,424	-52,22
358,63	-93,18
358,835	-35,84
359,041	-144,38
359,247	19,46
359,452	-41,98
359,658	-111,61
359,863	52,22
360,069	121,85
360,274	101,37
360,48	89,09
360,685	3,07
360,891	297,98
361,097	-89,09
361,302	-136,19
361,508	138,24
361,713	128
361,918	293,88
362,124	-3,07
362,329	123,9
362,535	56,32
362,74	-39,94
362,946	13,31
363,151	-31,74
363,357	44,03
363,562	-39,94
363,767	-181,25
363,973	78,85
364,178	60,42
364,383	-50,18
364,589	62,46
364,794	-134,14
365	105,47
365,205	187,39
365,41	-134,14
365,615	41,98
365,821	-132,09
366,026	248,83
366,231	-15,36
366,437	207,87
366,642	-263,16
366,847	230,4
367,052	17,41
367,258	-109,57
367,463	-5,12
367,668	-37,89
367,873	181,25
368,078	97,28
368,284	-300,03
368,489	-44,03
368,694	-70,65
368,899	-82,94
369,104	113,66
369,309	62,46
369,515	-19,46
369,72	78,85
369,925	-39,94
370,13	175,1
370,335	134,14
370,54	-44,03
370,745	91,13
370,95	97,28
371,155	62,46
371,36	54,27
371,565	125,95
371,77	115,71
371,975	-136,19
372,18	97,28
372,385	246,78
372,59	119,81
372,795	13,31
373	99,33
373,205	201,72
373,41	48,13
373,615	-70,65
373,82	-228,35
374,025	95,23
374,23	-187,39
374,435	-130,05
374,64	56,32
374,845	95,23
375,05	41,98
375,254	-5,12
375,459	-76,8
375,664	-39,94
375,869	31,74
376,074	-93,18
376,279	-89,09
376,483	44,03
376,688	-103,42
376,893	-31,74
377,098	-136,19
377,303	76,8
377,507	125,95
377,712	-27,65
377,917	87,04
378,122	203,77
378,326	27,65
378,531	-72,7
378,736	-37,89
378,94	-52,22
379,145	66,56
379,35	64,51
379,554	-78,85
379,759	-66,56
379,964	115,71
380,168	-128
380,373	-82,94
380,578	187,39
380,782	443,39
380,987	64,51
381,191	-125,95
381,396	164,86
381,601	101,37
381,805	68,61
382,01	136,19
382,214	164,86
382,419	5,12
382,623	-9,22
382,828	31,74
383,032	-58,37
383,237	-166,91
383,441	-93,18
383,646	183,29
383,85	-101,37
384,055	19,46
384,259	-41,98
384,464	-216,06
384,668	25,6
384,872	-23,55
385,077	-82,94
385,281	-41,98
385,486	-78,85
385,69	95,23
385,894	78,85
386,099	80,89
386,303	13,31
386,507	199,68
386,712	123,9
386,916	-91,13
387,12	-148,48
387,325	246,78
387,529	52,22
387,733	23,55
387,937	-41,98
388,142	7,17
388,346	-185,34
388,55	-46,08
388,754	17,41
388,959	-56,32
389,163	-1,02
389,367	-13,31
389,571	-115,71
389,775	185,34
389,98	39,94
390,184	-54,27
390,388	56,32
390,592	93,18
390,796	-70,65
391	-48,13
391,204	-9,22
391,409	-115,71
391,613	-13,31
391,817	-68,61
392,021	177,15
392,225	89,09
392,429	-7,17
392,633	-66,56
392,837	54,27
393,041	70,65
393,245	109,57
393,449	-115,71
393,653	95,23
393,857	144,38
394,061	101,37
394,265	-33,79
394,469	-5,12
394,673	111,61
394,877	48,13
395,081	27,65
395,285	224,25
395,489	105,47
395,693	48,13
395,896	27,65
396,1	109,57
396,304	185,34
396,508	-119,81
396,712	-25,6
396,916	11,26
397,12	121,85
397,323	-13,31
397,527	-56,32
397,731	242,68
397,935	166,91
398,139	-21,5
398,342	60,42
398,546	146,43
398,75	-52,22
398,954	15,36
399,157	138,24
399,361	295,93
399,565	-17,41
399,769	142,33
399,972	9,22
400,176	39,94
400,38	15,36
400,583	7,17
400,787	109,57
400,991	195,58
401,194	224,25
401,398	48,13
401,601	31,74
401,805	146,43
402,009	119,81
402,212	66,56
402,416	279,55
402,619	3,07
402,823	359,42
403,026	-62,46
403,23	48,13
403,433	281,6
403,637	44,03
403,841	62,46
404,044	128
404,247	35,84
404,451	62,46
404,654	119,81
404,858	50,18
405,061	95,23
405,265	91,13
405,468	78,85
405,672	-50,18
405,875	175,1
406,078	31,74
406,282	-95,23
406,485	-23,55
406,689	201,72
406,892	377,85
407,095	15,36
407,299	1,02
407,502	201,72
407,705	-9,22
407,909	70,65
408,112	62,46
408,315	238,59
408,518	377,85
408,722	76,8
408,925	144,38
409,128	322,56
409,331	113,66
409,535	177,15
409,738	74,75
409,941	506,87
410,144	103,42
410,347	234,49
410,551	181,25
410,754	103,42
410,957	220,16
411,16	11,26
411,363	136,19
411,566	173,05
411,769	220,16
411,973	111,61
412,176	293,88
412,379	455,67
412,582	400,38
412,785	203,77
412,988	-113,66
413,191	244,73
413,394	244,73
413,597	37,89
413,8	-66,56
414,003	482,3
414,206	125,95
414,409	140,29
414,612	-11,26
414,815	179,2
415,018	123,9
415,221	132,09
415,424	312,32
415,627	248,83
415,83	261,12
416,033	195,58
416,235	109,57
416,438	324,6
416,641	361,47
416,844	78,85
417,047	-113,66
417,25	23,55
417,453	160,77
417,655	113,66
417,858	80,89
418,061	39,94
418,264	113,66
418,467	48,13
418,669	74,75
418,872	283,64
419,075	78,85
419,278	78,85
419,48	205,82
419,683	175,1
419,886	31,74
420,089	93,18
420,291	191,49
420,494	74,75
420,697	72,7
420,899	224,25
421,102	-46,08
421,305	228,35
421,507	138,24
421,71	84,99
421,912	39,94
422,115	76,8
422,318	279,55
422,52	142,33
422,723	46,08
422,925	300,03
423,128	496,63
423,33	17,41
423,533	-37,89
423,735	199,68
423,938	150,53
424,14	97,28
424,343	300,03
424,545	447,48
424,748	336,89
424,95	195,58
425,153	25,6
425,355	150,53
425,558	340,99
425,76	158,72
425,962	242,68
426,165	171,01
426,367	35,84
426,57	80,89
426,772	70,65
426,974	259,07
427,177	54,27
427,379	23,55
427,581	181,25
427,784	58,37
427,986	132,09
428,188	130,05
428,39	-54,27
428,593	154,62
428,795	287,74
428,997	183,29
429,2	35,84
429,402	318,46
429,604	19,46
429,806	-7,17
430,008	414,71
430,211	271,36
430,413	99,33
430,615	185,34
430,817	105,47
431,019	64,51
431,221	300,03
431,423	-46,08
431,626	95,23
431,828	117,76
432,03	70,65
432,232	66,56
432,434	158,72
432,636	250,88
432,838	44,03
433,04	252,92
433,242	82,94
433,444	152,57
433,646	398,33
433,848	1,02
434,05	171,01
434,252	74,75
434,454	164,86
434,656	-64,51
434,858	140,29
435,06	87,04
435,262	359,42
435,464	132,09
435,666	267,26
435,868	482,3
436,07	285,69
436,271	50,18
436,473	119,81
436,675	484,34
436,877	193,53
437,079	250,88
437,281	39,94
437,482	205,82
437,684	-27,65
437,886	84,99
438,088	154,62
438,29	209,92
438,491	326,65
