Data from LED  warmweiss 2_USB4F035431__0__12-57-29-549.txt Node

Date: Tue Feb 02 12:57:29 CET 2021
User: Praktikum
Spectrometer: USB4F03543
Trigger mode: 4
Integration Time (sec): 4,000000E-1
Scans to average: 1
Electric dark correction enabled: true
Nonlinearity correction enabled: false
Boxcar width: 0
XAxis mode: Wavelengths
Number of Pixels in Spectrum: 3648
>>>>>Begin Spectral Data<<<<<
179,969	-653,64
180,181	-653,64
180,394	-653,64
180,606	-600,4
180,819	-627,02
181,031	251,56
181,243	384,68
181,456	-229,71
181,668	-149,84
181,88	194,22
182,093	36,52
182,305	-250,19
182,518	-258,39
182,73	296,61
182,942	181,93
183,155	-262,48
183,367	-194,9
183,579	276,13
183,791	263,85
184,004	-190,8
184,216	-166,23
184,428	50,86
184,641	73,39
184,853	-252,24
185,065	-219,47
185,277	179,88
185,49	233,13
185,702	-264,53
185,914	-180,56
186,126	5,8
186,338	190,12
186,551	-305,49
186,763	-162,13
186,975	-76,12
187,187	132,78
187,399	-297,3
187,612	-143,7
187,824	9,9
188,036	167,59
188,248	-86,36
188,46	-209,23
188,672	222,89
188,885	26,28
189,097	-162,13
189,309	-235,86
189,521	120,49
189,733	175,78
189,945	-192,85
190,157	-96,6
190,369	24,23
190,581	-41,3
190,794	-125,27
191,006	-198,99
191,218	110,25
191,43	153,26
191,642	-233,81
191,854	-170,32
192,066	276,13
192,278	120,49
192,49	-362,83
192,702	-160,08
192,914	163,5
193,126	83,63
193,338	-211,28
193,55	-153,94
193,762	286,37
193,974	-117,08
194,186	-264,53
194,398	-186,71
194,61	116,39
194,822	292,52
195,034	-211,28
195,246	32,43
195,457	120,49
195,669	396,96
195,881	-162,13
196,093	-287,06
196,305	106,15
196,517	-182,61
196,729	-139,6
196,941	-192,85
197,153	415,4
197,365	356,01
197,576	-285,01
197,788	-192,85
198	298,66
198,212	439,97
198,424	-174,42
198,636	-192,85
198,847	-88,4
199,059	122,54
199,271	-295,25
199,483	-217,43
199,695	95,91
199,906	253,61
200,118	-268,63
200,33	-112,98
200,542	851,61
200,753	-29,01
200,965	-248,15
201,177	-176,47
201,389	57
201,6	-80,21
201,812	-164,18
202,024	-198,99
202,235	-31,06
202,447	229,03
202,659	-180,56
202,871	-141,65
203,082	112,3
203,294	-14,68
203,506	-225,62
203,717	-207,19
203,929	124,58
204,141	-94,55
204,352	-188,75
204,564	-119,12
204,775	34,47
204,987	351,91
205,199	-176,47
205,41	-86,36
205,622	274,09
205,833	95,91
206,045	-69,97
206,257	-227,67
206,468	-135,51
206,68	-59,73
206,891	-164,18
207,103	-160,08
207,314	-149,84
207,526	202,41
207,737	-256,34
207,949	-86,36
208,16	175,78
208,372	71,34
208,583	-213,33
208,795	-186,71
209,006	95,91
209,218	124,58
209,429	-332,11
209,641	-155,99
209,852	81,58
210,064	231,08
210,275	-192,85
210,487	-98,64
210,698	304,81
210,909	229,03
211,121	-88,4
211,332	-137,56
211,544	198,31
211,755	345,77
211,966	-63,83
212,178	-186,71
212,389	464,55
212,6	67,24
212,812	57
213,023	-174,42
213,234	186,02
213,446	169,64
213,657	-196,95
213,868	-125,27
214,08	458,4
214,291	108,2
214,502	-129,36
214,714	-213,33
214,925	48,81
215,136	20,14
215,347	-82,26
215,559	-239,95
215,77	-158,03
215,981	399,01
216,192	-289,1
216,404	-180,56
216,615	173,74
216,826	263,85
217,037	-231,76
217,249	-252,24
217,46	329,38
217,671	97,96
217,882	-237,91
218,093	-168,27
218,304	159,4
218,516	181,93
218,727	-276,82
218,938	-192,85
219,149	448,16
219,36	134,82
219,571	-272,72
219,782	-182,61
219,993	323,24
220,205	57
220,416	-158,03
220,627	-102,74
220,838	278,18
221,049	540,32
221,26	-235,86
221,471	-229,71
221,682	192,17
221,893	294,57
222,104	-164,18
222,315	-328,02
222,526	-74,07
222,737	102,06
222,948	-317,78
223,159	-190,8
223,37	155,3
223,581	-8,53
223,792	-182,61
224,003	-112,98
224,214	-49,49
224,425	188,07
224,636	-276,82
224,847	-121,17
225,058	126,63
225,269	132,78
225,48	-235,86
225,691	-295,25
225,902	159,4
226,112	22,19
226,323	-244,05
226,534	-235,86
226,745	75,43
226,956	-49,49
227,167	-149,84
227,378	-180,56
227,589	-0,34
227,799	343,72
228,01	-201,04
228,221	-184,66
228,432	124,58
228,643	-55,64
228,853	-112,98
229,064	-174,42
229,275	95,91
229,486	-55,64
229,697	-235,86
229,907	-188,75
230,118	97,96
230,329	7,85
230,54	-203,09
230,75	-115,03
230,961	308,9
231,172	-63,83
231,383	-188,75
231,593	-223,57
231,804	-14,68
232,015	132,78
232,225	-272,72
232,436	-219,47
232,647	231,08
232,857	310,95
233,068	-258,39
233,279	-153,94
233,489	36,52
233,7	67,24
233,91	-186,71
234,121	-112,98
234,332	75,43
234,542	120,49
234,753	-227,67
234,964	-162,13
235,174	7,85
235,385	216,74
235,595	-213,33
235,806	-106,84
236,016	-18,77
236,227	44,71
236,437	-252,24
236,648	-235,86
236,858	97,96
237,069	-20,82
237,279	-151,89
237,49	-149,84
237,7	95,91
237,911	202,41
238,121	-194,9
238,332	-160,08
238,542	153,26
238,753	147,11
238,963	-223,57
239,174	-219,47
239,384	138,92
239,595	24,23
239,805	-217,43
240,015	-285,01
240,226	165,54
240,436	81,58
240,647	-252,24
240,857	-139,6
241,067	171,69
241,278	691,87
241,488	-289,1
241,698	-39,25
241,909	-31,06
242,119	102,06
242,329	-170,32
242,54	-174,42
242,75	9,9
242,96	-80,21
243,171	-158,03
243,381	-227,67
243,591	-104,79
243,801	196,26
244,012	26,28
244,222	-239,95
244,432	-153,94
244,642	42,67
244,853	-188,75
245,063	-201,04
245,273	155,3
245,483	102,06
245,694	-78,16
245,904	-147,8
246,114	169,64
246,324	-43,35
246,534	-108,88
246,744	-192,85
246,955	-219,47
247,165	351,91
247,375	91,82
247,585	-153,94
247,795	95,91
248,005	255,65
248,215	-178,51
248,425	18,09
248,636	581,28
248,846	-16,73
249,056	-184,66
249,266	-192,85
249,476	132,78
249,686	65,19
249,896	-268,63
250,106	-186,71
250,316	42,67
250,526	507,55
250,736	-297,3
250,946	1,71
251,156	313
251,366	16,04
251,576	-110,93
251,786	-88,4
251,996	-33,11
252,206	-47,44
252,416	-235,86
252,626	-270,67
252,836	-55,64
253,046	149,16
253,256	-108,88
253,466	-92,5
253,676	71,34
253,885	155,3
254,095	-198,99
254,305	-112,98
254,515	173,74
254,725	40,62
254,935	-194,9
255,145	-153,94
255,355	280,23
255,564	108,2
255,774	-162,13
255,984	116,39
256,194	110,25
256,404	79,53
256,614	-170,32
256,823	-31,06
257,033	91,82
257,243	263,85
257,453	-235,86
257,662	-149,84
257,872	286,37
258,082	69,29
258,292	-323,92
258,501	-127,32
258,711	667,3
258,921	421,54
259,131	-289,1
259,34	-207,19
259,55	190,12
259,76	-33,11
259,969	-188,75
260,179	-164,18
260,389	97,96
260,598	374,44
260,808	-178,51
261,018	-219,47
261,227	339,62
261,437	36,52
261,647	-108,88
261,856	-239,95
262,066	151,21
262,275	376,48
262,485	-225,62
262,694	-102,74
262,904	93,87
263,114	294,57
263,323	-207,19
263,533	-180,56
263,742	28,33
263,952	126,63
264,161	-235,86
264,371	-203,09
264,58	93,87
264,79	9,9
264,999	-139,6
265,209	-201,04
265,418	151,21
265,628	87,72
265,837	-145,75
266,047	-246,1
266,256	347,81
266,466	-14,68
266,675	-221,52
266,884	-203,09
267,094	155,3
267,303	290,47
267,513	-151,89
267,722	28,33
267,931	157,35
268,141	9,9
268,35	-184,66
268,559	-203,09
268,769	-0,34
268,978	-102,74
269,187	-151,89
269,397	-119,12
269,606	-117,08
269,815	-53,59
270,025	-145,75
270,234	-127,32
270,443	-8,53
270,653	118,44
270,862	-227,67
271,071	-112,98
271,28	3,75
271,49	165,54
271,699	-137,56
271,908	-123,22
272,117	126,63
272,327	57
272,536	-239,95
272,745	-227,67
272,954	5,8
273,163	126,63
273,372	104,11
273,582	-121,17
273,791	67,24
274	-47,44
274,209	-14,68
274,418	52,91
274,627	306,85
274,836	18,09
275,046	5,8
275,255	-59,73
275,464	-6,49
275,673	-22,87
275,882	65,19
276,091	-22,87
276,3	224,94
276,509	24,23
276,718	18,09
276,927	-143,7
277,136	161,45
277,345	71,34
277,554	-14,68
277,763	42,67
277,972	89,77
278,181	120,49
278,39	-35,16
278,599	1,71
278,808	-35,16
279,017	145,06
279,226	-143,7
279,435	20,14
279,644	40,62
279,853	251,56
280,062	304,81
280,271	-98,64
280,48	7,85
280,688	91,82
280,897	-53,59
281,106	-117,08
281,315	-137,56
281,524	91,82
281,733	32,43
281,942	95,91
282,151	124,58
282,359	222,89
282,568	-153,94
282,777	-69,97
282,986	100,01
283,195	126,63
283,403	52,91
283,612	-53,59
283,821	-10,58
284,03	18,09
284,238	36,52
284,447	-63,83
284,656	11,95
284,865	100,01
285,073	-22,87
285,282	-4,44
285,491	44,71
285,699	-104,79
285,908	-61,78
286,117	-84,31
286,325	143,02
286,534	243,37
286,743	-20,82
286,951	57
287,16	140,97
287,369	16,04
287,577	11,95
287,786	-39,25
287,995	54,95
288,203	-63,83
288,412	67,24
288,62	-6,49
288,829	-14,68
289,037	1,71
289,246	-82,26
289,455	-22,87
289,663	75,43
289,872	243,37
290,08	5,8
290,289	40,62
290,497	-110,93
290,706	120,49
290,914	-217,43
291,123	-129,36
291,331	83,63
291,54	267,94
291,748	188,07
291,957	95,91
292,165	67,24
292,373	-133,46
292,582	16,04
292,79	28,33
292,999	155,3
293,207	198,31
293,415	-82,26
293,624	-133,46
293,832	75,43
294,041	196,26
294,249	-33,11
294,457	-115,03
294,666	85,67
294,874	-131,41
295,082	20,14
295,291	42,67
295,499	1,71
295,707	87,72
295,915	61,1
296,124	-6,49
296,332	95,91
296,54	57
296,749	229,03
296,957	-2,39
297,165	155,3
297,373	-41,3
297,581	-72,02
297,79	28,33
297,998	-51,54
298,206	1,71
298,414	44,71
298,622	16,04
298,831	282,28
299,039	-53,59
299,247	104,11
299,455	-6,49
299,663	347,81
299,871	67,24
300,08	-115,03
300,288	-8,53
300,496	71,34
300,704	1,71
300,912	-0,34
301,12	-43,35
301,328	38,57
301,536	54,95
301,744	-137,56
301,952	-59,73
302,16	-72,02
302,368	34,47
302,576	38,57
302,784	87,72
302,992	-149,84
303,2	57
303,408	-41,3
303,616	-45,4
303,824	149,16
304,032	220,84
304,24	235,18
304,448	34,47
304,656	-61,78
304,864	274,09
305,072	163,5
305,28	-57,68
305,488	50,86
305,696	67,24
305,904	-22,87
306,111	-117,08
306,319	-18,77
306,527	183,98
306,735	48,81
306,943	-8,53
307,151	30,38
307,359	-88,4
307,566	81,58
307,774	79,53
307,982	167,59
308,19	-115,03
308,398	-59,73
308,605	-45,4
308,813	-96,6
309,021	-6,49
309,229	73,39
309,436	-170,32
309,644	188,07
309,852	214,7
310,06	140,97
310,267	-82,26
310,475	57
310,683	110,25
310,89	50,86
311,098	75,43
311,306	3,75
311,513	210,6
311,721	-76,12
311,929	-0,34
312,136	63,15
312,344	5,8
312,552	130,73
312,759	-35,16
312,967	274,09
313,174	149,16
313,382	61,1
313,589	48,81
313,797	183,98
314,005	220,84
314,212	7,85
314,42	-96,6
314,627	-0,34
314,835	5,8
315,042	-35,16
315,25	-178,51
315,457	-88,4
315,665	-266,58
315,872	114,34
316,08	9,9
316,287	-26,96
316,495	521,89
316,702	-43,35
316,909	-143,7
317,117	202,41
317,324	128,68
317,532	134,82
317,739	-110,93
317,946	-47,44
318,154	-135,51
318,361	-65,88
318,569	106,15
318,776	-31,06
318,983	-98,64
319,191	108,2
319,398	24,23
319,605	65,19
319,813	243,37
320,02	-225,62
320,227	118,44
320,434	175,78
320,642	13,99
320,849	13,99
321,056	77,48
321,264	73,39
321,471	67,24
321,678	22,19
321,885	-145,75
322,092	224,94
322,3	83,63
322,507	-147,8
322,714	65,19
322,921	32,43
323,128	-125,27
323,336	-67,92
323,543	-16,73
323,75	171,69
323,957	167,59
324,164	145,06
324,371	91,82
324,578	-180,56
324,786	130,73
324,993	-33,11
325,2	42,67
325,407	-201,04
325,614	87,72
325,821	75,43
326,028	226,98
326,235	206,5
326,442	106,15
326,649	-26,96
326,856	61,1
327,063	-98,64
327,27	91,82
327,477	-14,68
327,684	-119,12
327,891	-16,73
328,098	167,59
328,305	93,87
328,512	-74,07
328,719	128,68
328,926	288,42
329,133	-82,26
329,34	286,37
329,546	91,82
329,753	132,78
329,96	-67,92
330,167	9,9
330,374	165,54
330,581	210,6
330,788	-221,52
330,995	65,19
331,201	34,47
331,408	63,15
331,615	-67,92
331,822	-39,25
332,029	-18,77
332,235	130,73
332,442	-145,75
332,649	-16,73
332,856	-162,13
333,062	50,86
333,269	-33,11
333,476	11,95
333,683	40,62
333,889	67,24
334,096	-35,16
334,303	100,01
334,509	-10,58
334,716	194,22
334,923	57
335,129	-74,07
335,336	100,01
335,543	3,75
335,749	-45,4
335,956	120,49
336,163	-125,27
336,369	89,77
336,576	-43,35
336,782	161,45
336,989	-61,78
337,196	140,97
337,402	-135,51
337,609	-119,12
337,815	24,23
338,022	251,56
338,228	83,63
338,435	247,46
338,641	157,35
338,848	231,08
339,054	124,58
339,261	-117,08
339,467	-168,27
339,674	132,78
339,88	77,48
340,087	-129,36
340,293	-26,96
340,5	30,38
340,706	108,2
340,912	-164,18
341,119	9,9
341,325	-8,53
341,532	-84,31
341,738	-115,03
341,944	231,08
342,151	83,63
342,357	-18,77
342,563	89,77
342,77	59,05
342,976	1,71
343,182	104,11
343,389	5,8
343,595	-43,35
343,801	-22,87
344,007	71,34
344,214	-129,36
344,42	36,52
344,626	24,23
344,832	-72,02
345,039	-98,64
345,245	77,48
345,451	28,33
345,657	50,86
345,864	-137,56
346,07	116,39
346,276	183,98
346,482	85,67
346,688	57
346,894	-16,73
347,1	57
347,307	32,43
347,513	173,74
347,719	50,86
347,925	165,54
348,131	-250,19
348,337	11,95
348,543	-14,68
348,749	-8,53
348,955	130,73
349,161	-180,56
349,367	11,95
349,573	300,71
349,779	48,81
349,985	-53,59
350,191	-65,88
350,397	179,88
350,603	89,77
350,809	-8,53
351,015	97,96
351,221	-18,77
351,427	81,58
351,633	140,97
351,839	235,18
352,045	124,58
352,251	169,64
352,457	-63,83
352,663	163,5
352,869	50,86
353,075	61,1
353,28	-84,31
353,486	38,57
353,692	-18,77
353,898	-96,6
354,104	-88,4
354,31	241,32
354,515	-155,99
354,721	104,11
354,927	1,71
355,133	196,26
355,339	120,49
355,544	-0,34
355,75	38,57
355,956	87,72
356,162	102,06
356,367	-119,12
356,573	77,48
356,779	-37,2
356,984	171,69
357,19	204,46
357,396	97,96
357,602	396,96
357,807	71,34
358,013	26,28
358,218	36,52
358,424	-55,64
358,63	-100,69
358,835	24,23
359,041	-108,88
359,247	73,39
359,452	-26,96
359,658	-133,46
359,863	87,72
360,069	177,83
360,274	140,97
360,48	71,34
360,685	-14,68
360,891	202,41
361,097	20,14
361,302	-37,2
361,508	198,31
361,713	91,82
361,918	403,11
362,124	-96,6
362,329	34,47
362,535	85,67
362,74	28,33
362,946	-2,39
363,151	-59,73
363,357	34,47
363,562	-61,78
363,767	-88,4
363,973	112,3
364,178	50,86
364,383	-18,77
364,589	20,14
364,794	-110,93
365	104,11
365,205	149,16
365,41	-14,68
365,615	-20,82
365,821	-76,12
366,026	272,04
366,231	100,01
366,437	163,5
366,642	-190,8
366,847	206,5
367,052	5,8
367,258	-92,5
367,463	-59,73
367,668	34,47
367,873	175,78
368,078	102,06
368,284	-219,47
368,489	-88,4
368,694	26,28
368,899	-82,26
369,104	202,41
369,309	79,53
369,515	-59,73
369,72	67,24
369,925	9,9
370,13	212,65
370,335	59,05
370,54	-14,68
370,745	91,82
370,95	95,91
371,155	75,43
371,36	26,28
371,565	186,02
371,77	116,39
371,975	-84,31
372,18	59,05
372,385	218,79
372,59	100,01
372,795	13,99
373	38,57
373,205	216,74
373,41	151,21
373,615	-123,22
373,82	-160,08
374,025	24,23
374,23	-139,6
374,435	-39,25
374,64	42,67
374,845	122,54
375,05	63,15
375,254	-43,35
375,459	-129,36
375,664	59,05
375,869	-2,39
376,074	-94,55
376,279	-37,2
376,483	116,39
376,688	-26,96
376,893	44,71
377,098	-149,84
377,303	181,93
377,507	222,89
377,712	20,14
377,917	108,2
378,122	249,51
378,326	104,11
378,531	-53,59
378,736	-76,12
378,94	-39,25
379,145	22,19
379,35	67,24
379,554	-10,58
379,759	-129,36
379,964	114,34
380,168	-63,83
380,373	-57,68
380,578	255,65
380,782	505,51
380,987	97,96
381,191	-117,08
381,396	136,87
381,601	97,96
381,805	65,19
382,01	183,98
382,214	194,22
382,419	124,58
382,623	-2,39
382,828	-22,87
383,032	-55,64
383,237	-127,32
383,441	-110,93
383,646	165,54
383,85	-26,96
384,055	151,21
384,259	-22,87
384,464	-162,13
384,668	-8,53
384,872	65,19
385,077	16,04
385,281	-14,68
385,486	-12,63
385,69	149,16
385,894	87,72
386,099	75,43
386,303	93,87
386,507	229,03
386,712	169,64
386,916	-67,92
387,12	-139,6
387,325	317,09
387,529	11,95
387,733	124,58
387,937	-96,6
388,142	-45,4
388,346	-88,4
388,55	-6,49
388,754	143,02
388,959	-43,35
389,163	-31,06
389,367	7,85
389,571	-55,64
389,775	222,89
389,98	38,57
390,184	63,15
390,388	32,43
390,592	124,58
390,796	-2,39
391	-4,44
391,204	-29,01
391,409	-26,96
391,613	54,95
391,817	-94,55
392,021	161,45
392,225	38,57
392,429	-59,73
392,633	-0,34
392,837	108,2
393,041	46,76
393,245	104,11
393,449	-86,36
393,653	9,9
393,857	128,68
394,061	63,15
394,265	7,85
394,469	-2,39
394,673	104,11
394,877	124,58
395,081	44,71
395,285	265,89
395,489	130,73
395,693	34,47
395,896	13,99
396,1	237,22
396,304	155,3
396,508	-65,88
396,712	9,9
396,916	-26,96
397,12	50,86
397,323	34,47
397,527	122,54
397,731	304,81
397,935	165,54
398,139	59,05
398,342	110,25
398,546	255,65
398,75	85,67
398,954	44,71
399,157	272,04
399,361	310,95
399,565	71,34
399,769	140,97
399,972	108,2
400,176	95,91
400,38	132,78
400,583	-43,35
400,787	83,63
400,991	233,13
401,194	196,26
401,398	110,25
401,601	93,87
401,805	263,85
402,009	165,54
402,212	97,96
402,416	323,24
402,619	24,23
402,823	353,96
403,026	-12,63
403,23	34,47
403,433	409,25
403,637	204,46
403,841	118,44
404,044	143,02
404,247	44,71
404,451	175,78
404,654	149,16
404,858	159,4
405,061	165,54
405,265	229,03
405,468	233,13
405,672	5,8
405,875	300,71
406,078	140,97
406,282	81,58
406,485	18,09
406,689	407,2
406,892	401,06
407,095	36,52
407,299	116,39
407,502	333,48
407,705	128,68
407,909	44,71
408,112	204,46
408,315	272,04
408,518	532,13
408,722	194,22
408,925	224,94
409,128	509,6
409,331	358,05
409,535	261,8
409,738	216,74
409,941	634,53
410,144	255,65
410,347	374,44
410,551	394,92
410,754	298,66
410,957	396,96
411,16	167,59
411,363	356,01
411,566	411,3
411,769	460,45
411,973	399,01
412,176	356,01
412,379	773,79
412,582	642,72
412,785	437,92
412,988	210,6
413,191	501,41
413,394	480,93
413,597	263,85
413,8	374,44
414,003	837,28
414,206	468,64
414,409	513,7
414,612	388,77
414,815	564,9
415,018	663,2
415,221	501,41
415,424	753,31
415,627	689,82
415,83	655,01
416,033	618,15
416,235	644,77
416,438	868
416,641	886,43
416,844	644,77
417,047	523,94
417,25	605,86
417,453	722,59
417,655	587,43
417,858	749,22
418,061	652,96
418,264	765,6
418,467	720,54
418,669	833,18
418,872	1080,99
419,075	900,76
419,278	788,13
419,48	1044,12
419,683	1138,33
419,886	849,57
420,089	921,24
420,291	1136,28
420,494	890,53
420,697	1017,5
420,899	1232,54
421,102	908,96
421,305	1324,69
421,507	1324,69
421,71	1269,4
421,912	1183,38
422,115	1152,67
422,318	1416,85
422,52	1398,42
422,723	1347,22
422,925	1640,08
423,128	1666,71
423,33	1310,36
423,533	1437,33
423,735	1588,88
423,938	1652,37
424,14	1767,06
424,343	1728,14
424,545	1998,48
424,748	1842,83
424,95	1750,67
425,153	1631,89
425,355	1865,36
425,558	2029,2
425,76	1838,73
425,962	1937,04
426,165	1889,93
426,367	2047,63
426,57	2014,86
426,772	1967,76
426,974	2350,73
427,177	1963,66
427,379	2174,6
427,581	2420,36
427,784	2406,02
427,986	2113,16
428,188	2268,81
428,39	2363,01
428,593	2479,75
428,795	2774,66
428,997	2561,67
429,2	2659,97
429,402	2758,27
429,604	2680,45
429,806	2659,97
430,008	3018,36
430,211	3106,43
430,413	2915,97
430,615	2952,83
430,817	3178,11
431,019	3073,66
431,221	3276,41
431,423	2889,34
431,626	3131
431,828	3315,32
432,03	3135,1
432,232	3182,2
432,434	3376,76
432,636	3585,65
432,838	3393,14
433,04	3565,17
433,242	3595,89
433,444	3536,5
433,646	3884,66
433,848	3632,76
434,05	3763,83
434,252	3552,88
434,454	3729,01
434,656	3784,3
434,858	3958,38
435,06	3892,85
435,262	4130,41
435,464	4212,33
435,666	4245,1
435,868	4433,51
436,07	4443,75
436,271	4400,74
436,473	4347,5
436,675	4892,26
436,877	4658,79
437,079	4402,79
437,281	4441,7
437,482	4832,86
437,684	4906,59
