Data from LED  warmweiss 1_USB4F035431__0__12-54-41-165.txt Node

Date: Tue Feb 02 12:54:41 CET 2021
User: Praktikum
Spectrometer: USB4F03543
Trigger mode: 4
Integration Time (sec): 4,000000E-1
Scans to average: 1
Electric dark correction enabled: true
Nonlinearity correction enabled: false
Boxcar width: 0
XAxis mode: Wavelengths
Number of Pixels in Spectrum: 3648
>>>>>Begin Spectral Data<<<<<
179,969	-628,9
180,181	-628,9
180,394	-628,9
180,606	-637,09
180,819	-725,15
181,031	225,11
181,243	364,37
181,456	-164,01
181,668	-143,53
181,88	241,49
182,093	5,97
182,305	-299,17
182,518	-135,34
182,73	251,73
182,942	106,32
183,155	-305,32
183,367	-147,62
183,579	257,87
183,791	270,16
184,004	-174,25
184,216	-139,43
184,428	59,22
184,641	124,76
184,853	-266,41
185,065	-143,53
185,277	239,44
185,49	175,95
185,702	-217,26
185,914	-227,5
186,126	112,47
186,338	161,62
186,551	-243,88
186,763	-151,72
186,975	-133,29
187,187	178
187,399	-233,64
187,612	-176,3
187,824	38,74
188,036	155,47
188,248	-18,6
188,46	-256,17
188,672	235,35
188,885	-22,7
189,097	-176,3
189,309	-231,59
189,521	120,66
189,733	118,61
189,945	-176,3
190,157	-86,19
190,369	69,46
190,581	-57,51
190,794	-188,58
191,006	-178,34
191,218	30,55
191,43	159,57
191,642	-229,54
191,854	-153,77
192,066	300,88
192,278	167,76
192,49	-202,92
192,702	-135,34
192,914	151,38
193,126	71,51
193,338	-190,63
193,55	-188,58
193,762	280,4
193,974	-133,29
194,186	-198,82
194,398	-204,97
194,61	24,4
194,822	165,71
195,034	-176,3
195,246	-2,22
195,457	161,62
195,669	386,9
195,881	-184,49
196,093	-250,02
196,305	53,08
196,517	-180,39
196,729	-215,21
196,941	-231,59
197,153	294,74
197,365	454,48
197,576	-329,89
197,788	-231,59
198	194,39
198,212	345,94
198,424	-227,5
198,636	-209,06
198,847	-18,6
199,059	141,14
199,271	-280,74
199,483	-170,15
199,695	184,15
199,906	221,01
200,118	-276,65
200,33	-131,24
200,542	948,04
200,753	42,84
200,965	-200,87
201,177	-192,68
201,389	167,76
201,6	-176,3
201,812	-209,06
202,024	-121
202,235	-30,89
202,447	243,54
202,659	-100,52
202,871	-151,72
203,082	34,64
203,294	-47,27
203,506	-262,31
203,717	-166,06
203,929	114,52
204,141	-51,37
204,352	-198,82
204,564	-149,67
204,775	77,65
204,987	329,55
205,199	-213,16
205,41	-57,51
205,622	259,92
205,833	48,98
206,045	-125,1
206,257	-174,25
206,468	-10,41
206,68	71,51
206,891	-180,39
207,103	-141,48
207,314	-170,15
207,526	130,9
207,737	-235,69
207,949	-22,7
208,16	89,94
208,372	40,79
208,583	-233,64
208,795	-198,82
209,006	36,69
209,218	208,72
209,429	-280,74
209,641	-170,15
209,852	61,27
210,064	130,9
210,275	-227,5
210,487	-213,16
210,698	257,87
210,909	208,72
211,121	-182,44
211,332	-137,38
211,544	206,67
211,755	296,78
211,966	38,74
212,178	-262,31
212,389	593,74
212,6	91,99
212,812	30,55
213,023	-190,63
213,234	192,34
213,446	130,9
213,657	-284,84
213,868	-149,67
214,08	427,85
214,291	190,29
214,502	-137,38
214,714	-270,5
214,925	77,65
215,136	32,6
215,347	-102,57
215,559	-340,13
215,77	-84,14
215,981	331,6
216,192	-256,17
216,404	-159,91
216,615	190,29
216,826	247,63
217,037	-233,64
217,249	-194,73
217,46	423,76
217,671	175,95
217,882	-252,07
218,093	-188,58
218,304	161,62
218,516	91,99
218,727	-315,56
218,938	-229,54
219,149	286,54
219,36	108,37
219,571	-331,94
219,782	-219,3
219,993	276,31
220,205	-8,36
220,416	-69,8
220,627	-174,25
220,838	221,01
221,049	608,08
221,26	-190,63
221,471	-209,06
221,682	231,25
221,893	200,53
222,104	-282,79
222,315	-274,6
222,526	-112,81
222,737	5,97
222,948	-250,02
223,159	-141,48
223,37	98,13
223,581	28,5
223,792	-161,96
224,003	-71,85
224,214	-84,14
224,425	153,43
224,636	-284,84
224,847	-123,05
225,058	167,76
225,269	161,62
225,48	-227,5
225,691	-260,26
225,902	194,39
226,112	36,69
226,323	-278,69
226,534	-145,58
226,745	20,31
226,956	24,4
227,167	-161,96
227,378	-186,54
227,589	-20,65
227,799	292,69
228,01	-198,82
228,221	-213,16
228,432	130,9
228,643	-110,76
228,853	-149,67
229,064	-280,74
229,275	75,6
229,486	-14,51
229,697	-211,11
229,907	-166,06
230,118	87,89
230,329	-51,37
230,54	-293,03
230,75	-100,52
230,961	292,69
231,172	-18,6
231,383	-176,3
231,593	-256,17
231,804	-47,27
232,015	182,1
232,225	-147,62
232,436	-176,3
232,647	178
232,857	194,39
233,068	-217,26
233,279	-129,19
233,489	139,09
233,7	112,47
233,91	-272,55
234,121	-170,15
234,332	85,84
234,542	81,75
234,753	-252,07
234,964	-170,15
235,174	75,6
235,385	206,67
235,595	-123,05
235,806	-127,14
236,016	-47,27
236,227	57,17
236,437	-245,93
236,648	-151,72
236,858	20,31
237,069	8,02
237,279	-225,45
237,49	-272,55
237,7	139,09
237,911	44,88
238,121	-229,54
238,332	-198,82
238,542	218,96
238,753	12,12
238,963	-288,93
239,174	-100,52
239,384	108,37
239,595	85,84
239,805	-207,02
240,015	-223,4
240,226	132,95
240,436	130,9
240,647	-329,89
240,857	-127,14
241,067	106,32
241,278	759,63
241,488	-213,16
241,698	-121
241,909	-10,41
242,119	145,24
242,329	-186,54
242,54	-190,63
242,75	98,13
242,96	-88,23
243,171	-116,9
243,381	-241,83
243,591	-75,95
243,801	350,03
244,012	-22,7
244,222	-172,2
244,432	-204,97
244,642	18,26
244,853	-192,68
245,063	-194,73
245,273	210,77
245,483	57,17
245,694	-139,43
245,904	-108,71
246,114	210,77
246,324	-28,84
246,534	-102,57
246,744	-155,82
246,955	-329,89
247,165	319,31
247,375	-20,65
247,585	-143,53
247,795	28,5
248,005	239,44
248,215	-57,51
248,425	-18,6
248,636	634,7
248,846	-26,79
249,056	-217,26
249,266	-229,54
249,476	135
249,686	122,71
249,896	-256,17
250,106	-182,44
250,316	22,36
250,526	501,58
250,736	-274,6
250,946	79,7
251,156	321,36
251,366	3,93
251,576	-137,38
251,786	-118,95
251,996	-2,22
252,206	-92,33
252,416	-247,97
252,626	-221,35
252,836	-82,09
253,046	128,85
253,256	-168,1
253,466	-108,71
253,676	44,88
253,885	196,43
254,095	-258,21
254,305	-129,19
254,515	57,17
254,725	128,85
254,935	-223,4
255,145	-114,86
255,355	264,02
255,564	67,41
255,774	-256,17
255,984	24,4
256,194	94,04
256,404	14,17
256,614	-207,02
256,823	-104,62
257,033	67,41
257,243	272,21
257,453	-256,17
257,662	-184,49
257,872	259,92
258,082	51,03
258,292	-293,03
258,501	-145,58
258,711	706,38
258,921	474,96
259,131	-299,17
259,34	-164,01
259,55	44,88
259,76	-59,56
259,969	-260,26
260,179	-157,86
260,389	114,52
260,598	290,64
260,808	-131,24
261,018	-217,26
261,227	341,84
261,437	-30,89
261,647	-192,68
261,856	-295,08
262,066	192,34
262,275	393,04
262,485	-192,68
262,694	-157,86
262,904	38,74
263,114	261,97
263,323	-143,53
263,533	-243,88
263,742	46,93
263,952	159,57
264,161	-200,87
264,371	-247,97
264,58	145,24
264,79	-34,99
264,999	-125,1
265,209	-174,25
265,418	208,72
265,628	165,71
265,837	-149,67
266,047	-180,39
266,256	331,6
266,466	3,93
266,675	-207,02
266,884	-272,55
267,094	96,08
267,303	356,18
267,513	-80,04
267,722	26,45
267,931	251,73
268,141	-61,61
268,35	-184,49
268,559	-131,24
268,769	38,74
268,978	-151,72
269,187	-161,96
269,397	-221,35
269,606	-127,14
269,815	-65,71
270,025	-155,82
270,234	-104,62
270,443	-141,48
270,653	91,99
270,862	-264,36
271,071	-133,29
271,28	44,88
271,49	126,8
271,699	-250,02
271,908	-147,62
272,117	104,28
272,327	26,45
272,536	-262,31
272,745	-196,78
272,954	32,6
273,163	145,24
273,372	112,47
273,582	-131,24
273,791	135
274	-47,27
274,209	8,02
274,418	-18,6
274,627	294,74
274,836	53,08
275,046	-73,9
275,255	-41,13
275,464	38,74
275,673	-82,09
275,882	-8,36
276,091	-55,47
276,3	178
276,509	79,7
276,718	3,93
276,927	-110,76
277,136	87,89
277,345	48,98
277,554	77,65
277,763	-16,55
277,972	192,34
278,181	255,83
278,39	-92,33
278,599	-67,75
278,808	24,4
279,017	141,14
279,226	-131,24
279,435	-49,32
279,644	55,12
279,853	202,58
280,062	268,11
280,271	-96,43
280,48	5,97
280,688	3,93
280,897	5,97
281,106	-127,14
281,315	-63,66
281,524	100,18
281,733	14,17
281,942	-30,89
282,151	128,85
282,359	178
282,568	-116,9
282,777	-18,6
282,986	34,64
283,195	169,81
283,403	-39,08
283,612	-41,13
283,821	1,88
284,03	-57,51
284,238	81,75
284,447	-16,55
284,656	-22,7
284,865	173,91
285,073	-4,27
285,282	18,26
285,491	-20,65
285,699	-94,38
285,908	-12,46
286,117	-18,6
286,325	126,8
286,534	272,21
286,743	81,75
286,951	-28,84
287,16	204,63
287,369	-16,55
287,577	12,12
287,786	-69,8
287,995	20,31
288,203	-112,81
288,412	42,84
288,62	36,69
288,829	-28,84
289,037	-20,65
289,246	28,5
289,455	-123,05
289,663	184,15
289,872	296,78
290,08	-26,79
290,289	120,66
290,497	-104,62
290,706	69,46
290,914	-180,39
291,123	-82,09
291,331	124,76
291,54	264,02
291,748	186,19
291,957	44,88
292,165	102,23
292,373	-100,52
292,582	1,88
292,79	10,07
292,999	167,76
293,207	73,56
293,415	-59,56
293,624	-149,67
293,832	59,22
294,041	108,37
294,249	14,17
294,457	-161,96
294,666	137,04
294,874	-123,05
295,082	51,03
295,291	112,47
295,499	22,36
295,707	165,71
295,915	24,4
296,124	-20,65
296,332	22,36
296,54	46,93
296,749	173,91
296,957	10,07
297,165	-51,37
297,373	26,45
297,581	38,74
297,79	-30,89
297,998	-59,56
298,206	-92,33
298,414	3,93
298,622	38,74
298,831	206,67
299,039	-106,67
299,247	116,56
299,455	-8,36
299,663	321,36
299,871	67,41
300,08	-73,9
300,288	5,97
300,496	85,84
300,704	-2,22
300,912	-57,51
301,12	-26,79
301,328	143,19
301,536	1,88
301,744	-98,47
301,952	-18,6
302,16	-114,86
302,368	-49,32
302,576	18,26
302,784	89,94
302,992	-186,54
303,2	12,12
303,408	-112,81
303,616	-61,61
303,824	216,91
304,032	253,78
304,24	257,87
304,448	143,19
304,656	14,17
304,864	311,12
305,072	73,56
305,28	28,5
305,488	118,61
305,696	110,42
305,904	-14,51
306,111	-159,91
306,319	53,08
306,527	69,46
306,735	75,6
306,943	14,17
307,151	14,17
307,359	-67,75
307,566	81,75
307,774	85,84
307,982	137,04
308,19	-114,86
308,398	-100,52
308,605	-86,19
308,813	-30,89
309,021	71,51
309,229	120,66
309,436	-114,86
309,644	231,25
309,852	165,71
310,06	48,98
310,267	-82,09
310,475	87,89
310,683	145,24
310,89	59,22
311,098	112,47
311,306	-10,41
311,513	259,92
311,721	-77,99
311,929	89,94
312,136	26,45
312,344	-32,94
312,552	65,36
312,759	-73,9
312,967	120,66
313,174	57,17
313,382	87,89
313,589	44,88
313,797	206,67
314,005	165,71
314,212	38,74
314,42	-94,38
314,627	1,88
314,835	96,08
315,042	-84,14
315,25	-170,15
315,457	-94,38
315,665	-182,44
315,872	71,51
316,08	5,97
316,287	-16,55
316,495	560,97
316,702	-69,8
316,909	-168,1
317,117	151,38
317,324	159,57
317,532	223,06
317,739	-125,1
317,946	14,17
318,154	-69,8
318,361	-43,18
318,569	94,04
318,776	-18,6
318,983	-94,38
319,191	-0,17
319,398	-45,23
319,605	-8,36
319,813	233,3
320,02	-174,25
320,227	116,56
320,434	173,91
320,642	61,27
320,849	-37,03
321,056	24,4
321,264	73,56
321,471	151,38
321,678	3,93
321,885	-84,14
322,092	202,58
322,3	67,41
322,507	-141,48
322,714	59,22
322,921	36,69
323,128	-139,43
323,336	-55,47
323,543	-8,36
323,75	173,91
323,957	96,08
324,164	65,36
324,371	-57,51
324,578	-157,86
324,786	233,3
324,993	-53,42
325,2	44,88
325,407	-235,69
325,614	14,17
325,821	208,72
326,028	182,1
326,235	151,38
326,442	98,13
326,649	-61,61
326,856	20,31
327,063	-102,57
327,27	-0,17
327,477	-63,66
327,684	-153,77
327,891	-92,33
328,098	118,61
328,305	139,09
328,512	-118,95
328,719	200,53
328,926	341,84
329,133	-141,48
329,34	257,87
329,546	65,36
329,753	96,08
329,96	-133,29
330,167	91,99
330,374	118,61
330,581	212,82
330,788	-151,72
330,995	-61,61
331,201	108,37
331,408	71,51
331,615	-73,9
331,822	-135,34
332,029	-39,08
332,235	51,03
332,442	-69,8
332,649	-37,03
332,856	-127,14
333,062	91,99
333,269	-14,51
333,476	51,03
333,683	24,4
333,889	132,95
334,096	-8,36
334,303	67,41
334,509	12,12
334,716	102,23
334,923	-57,51
335,129	-53,42
335,336	126,8
335,543	122,71
335,749	-14,51
335,956	173,91
336,163	-80,04
336,369	48,98
336,576	1,88
336,782	32,6
336,989	-96,43
337,196	180,05
337,402	-71,85
337,609	-192,68
337,815	-2,22
338,022	198,48
338,228	77,65
338,435	135
338,641	212,82
338,848	278,35
339,054	120,66
339,261	-53,42
339,467	-151,72
339,674	139,09
339,88	114,52
340,087	-90,28
340,293	-6,31
340,5	14,17
340,706	94,04
340,912	-172,2
341,119	-0,17
341,325	36,69
341,532	-90,28
341,738	-102,57
341,944	210,77
342,151	48,98
342,357	-67,75
342,563	61,27
342,77	67,41
342,976	-30,89
343,182	180,05
343,389	40,79
343,595	14,17
343,801	-55,47
344,007	10,07
344,214	-112,81
344,42	120,66
344,626	-37,03
344,832	-131,24
345,039	-39,08
345,245	91,99
345,451	-12,46
345,657	-0,17
345,864	-153,77
346,07	75,6
346,276	30,55
346,482	145,24
346,688	100,18
346,894	51,03
347,1	126,8
347,307	-4,27
347,513	175,95
347,719	40,79
347,925	85,84
348,131	-184,49
348,337	94,04
348,543	10,07
348,749	-55,47
348,955	120,66
349,161	-260,26
349,367	141,14
349,573	284,5
349,779	55,12
349,985	-98,47
350,191	44,88
350,397	141,14
350,603	100,18
350,809	-75,95
351,015	210,77
351,221	51,03
351,427	75,6
351,633	53,08
351,839	147,28
352,045	87,89
352,251	175,95
352,457	-67,75
352,663	137,04
352,869	40,79
353,075	34,64
353,28	-63,66
353,486	-45,23
353,692	79,7
353,898	-26,79
354,104	-55,47
354,31	155,47
354,515	-106,67
354,721	-34,99
354,927	-69,8
355,133	194,39
355,339	94,04
355,544	30,55
355,75	48,98
355,956	22,36
356,162	79,7
356,367	-118,95
356,573	69,46
356,779	-96,43
356,984	175,95
357,19	200,53
357,396	38,74
357,602	397,14
357,807	132,95
358,013	34,64
358,218	10,07
358,424	-51,37
358,63	-86,19
358,835	-69,8
359,041	-34,99
359,247	63,32
359,452	-32,94
359,658	-98,47
359,863	3,93
360,069	132,95
360,274	143,19
360,48	12,12
360,685	-26,79
360,891	255,83
361,097	-51,37
361,302	-6,31
361,508	61,27
361,713	44,88
361,918	411,47
362,124	-53,42
362,329	139,09
362,535	96,08
362,74	-59,56
362,946	-14,51
363,151	12,12
363,357	34,64
363,562	-51,37
363,767	-104,62
363,973	96,08
364,178	57,17
364,383	-86,19
364,589	-30,89
364,794	-178,34
365	278,35
365,205	227,15
365,41	-67,75
365,615	-37,03
365,821	-92,33
366,026	208,72
366,231	59,22
366,437	182,1
366,642	-219,3
366,847	167,76
367,052	-2,22
367,258	-131,24
367,463	-98,47
367,668	-28,84
367,873	69,46
368,078	116,56
368,284	-288,93
368,489	55,12
368,694	-28,84
368,899	-96,43
369,104	173,91
369,309	38,74
369,515	-22,7
369,72	42,84
369,925	-61,61
370,13	163,67
370,335	128,85
370,54	-71,85
370,745	42,84
370,95	5,97
371,155	48,98
371,36	-28,84
371,565	239,44
371,77	182,1
371,975	-176,3
372,18	106,32
372,385	257,87
372,59	190,29
372,795	-22,7
373	137,04
373,205	284,5
373,41	79,7
373,615	-84,14
373,82	-194,73
374,025	91,99
374,23	-151,72
374,435	5,97
374,64	-12,46
374,845	276,31
375,05	77,65
375,254	-4,27
375,459	-110,76
375,664	-45,23
375,869	5,97
376,074	-127,14
376,279	-20,65
376,483	18,26
376,688	-86,19
376,893	-51,37
377,098	-102,57
377,303	137,04
377,507	139,09
377,712	-4,27
377,917	132,95
378,122	196,43
378,326	5,97
378,531	-108,71
378,736	-88,23
378,94	38,74
379,145	116,56
379,35	-4,27
379,554	-22,7
379,759	-75,95
379,964	94,04
380,168	-155,82
380,373	5,97
380,578	259,92
380,782	423,76
380,987	108,37
381,191	-34,99
381,396	104,28
381,601	145,24
381,805	69,46
382,01	202,58
382,214	218,96
382,419	81,75
382,623	38,74
382,828	-20,65
383,032	34,64
383,237	-59,56
383,441	-129,19
383,646	145,24
383,85	-37,03
384,055	44,88
384,259	12,12
384,464	-186,54
384,668	-30,89
384,872	30,55
385,077	-30,89
385,281	73,56
385,486	-100,52
385,69	75,6
385,894	104,28
386,099	137,04
386,303	120,66
386,507	128,85
386,712	104,28
386,916	-129,19
387,12	-53,42
387,325	239,44
387,529	-47,27
387,733	77,65
387,937	8,02
388,142	10,07
388,346	-133,29
388,55	38,74
388,754	91,99
388,959	-67,75
389,163	36,69
389,367	-8,36
389,571	-102,57
389,775	237,39
389,98	34,64
390,184	48,98
390,388	5,97
390,592	46,93
390,796	22,36
391	-8,36
391,204	-67,75
391,409	-24,75
391,613	-49,32
391,817	-100,52
392,021	214,87
392,225	106,32
392,429	-10,41
392,633	-77,99
392,837	-30,89
393,041	98,13
393,245	16,21
393,449	-86,19
393,653	120,66
393,857	229,2
394,061	100,18
394,265	-84,14
394,469	36,69
394,673	268,11
394,877	173,91
395,081	55,12
395,285	237,39
395,489	194,39
395,693	-45,23
395,896	-0,17
396,1	180,05
396,304	214,87
396,508	-86,19
396,712	-37,03
396,916	75,6
397,12	114,52
397,323	24,4
397,527	34,64
397,731	384,85
397,935	208,72
398,139	69,46
398,342	124,76
398,546	143,19
398,75	36,69
398,954	85,84
399,157	239,44
399,361	337,74
399,565	-59,56
399,769	206,67
399,972	85,84
400,176	130,9
400,38	112,47
400,583	18,26
400,787	161,62
400,991	325,46
401,194	178
401,398	128,85
401,601	106,32
401,805	292,69
402,009	208,72
402,212	153,43
402,416	399,18
402,619	-4,27
402,823	286,54
403,026	24,4
403,23	108,37
403,433	374,61
403,637	53,08
403,841	91,99
404,044	192,34
404,247	89,94
404,451	194,39
404,654	200,53
404,858	227,15
405,061	96,08
405,265	180,05
405,468	221,01
405,672	81,75
405,875	278,35
406,078	112,47
406,282	161,62
406,485	61,27
406,689	446,29
406,892	489,29
407,095	102,23
407,299	32,6
407,502	388,94
407,705	44,88
407,909	98,13
408,112	214,87
408,315	325,46
408,518	536,4
408,722	190,29
408,925	259,92
409,128	380,75
409,331	325,46
409,535	339,79
409,738	182,1
409,941	681,8
410,144	362,32
410,347	350,03
410,551	399,18
410,754	304,98
410,957	417,61
411,16	171,86
411,363	390,99
411,566	292,69
411,769	427,85
411,973	309,07
412,176	546,64
412,379	722,76
412,582	702,28
412,785	477,01
412,988	307,02
413,191	491,34
413,394	497,49
413,597	294,74
413,8	403,28
414,003	780,11
414,206	395,09
414,409	558,92
414,612	474,96
414,815	567,12
415,018	579,4
415,221	513,87
415,424	724,81
415,627	683,85
415,83	806,73
416,033	644,94
416,235	610,12
416,438	898,89
416,641	966,47
416,844	651,08
417,047	552,78
417,25	653,13
417,453	730,95
417,655	640,84
417,858	773,96
418,061	659,28
418,264	794,44
418,467	737,1
418,669	753,48
418,872	1185,6
419,075	794,44
419,278	845,64
419,48	931,66
419,683	952,13
419,886	827,21
420,089	945,99
420,291	1021,77
420,494	898,89
420,697	1005,38
420,899	1138,5
421,102	847,69
421,305	1290,05
421,507	1181,51
421,71	1189,7
421,912	1193,8
422,115	1103,68
422,318	1339,2
422,52	1255,23
422,723	1163,08
422,925	1474,37
423,128	1462,08
423,33	1195,84
423,533	1263,43
423,735	1517,37
423,938	1435,46
424,14	1341,25
424,343	1570,62
424,545	1810,23
424,748	1670,97
424,95	1541,95
425,153	1587,01
425,355	1765,18
425,558	1859,38
425,76	1681,21
425,962	1701,69
426,165	1613,63
426,367	1857,34
426,57	1843
426,772	1791,8
426,974	2035,51
427,177	1828,67
427,379	1857,34
427,581	2156,34
427,784	2076,47
427,986	1881,91
428,188	2004,79
428,39	2092,85
428,593	2211,64
428,795	2400,05
428,997	2215,73
429,2	2129,72
429,402	2559,79
429,604	2271,03
429,806	2178,87
430,008	2535,21
430,211	2635,57
430,413	2457,39
430,615	2463,54
430,817	2621,23
431,019	2606,89
431,221	2680,62
431,423	2252,59
431,626	2479,92
431,828	2514,73
432,03	2477,87
432,232	2621,23
432,434	2811,69
432,636	2821,93
432,838	2602,8
433,04	2938,66
433,242	2852,65
433,444	2879,27
433,646	3069,73
433,848	2889,51
434,05	2912,04
434,252	2987,82
434,454	2819,88
434,656	3002,15
434,858	2971,43
435,06	3233,57
435,262	3209
435,464	3196,71
435,666	3233,57
435,868	3557,15
436,07	3522,34
436,271	3495,71
436,473	3178,28
436,675	3604,25
436,877	3395,36
437,079	3278,63
437,281	3329,83
