Data from Na 5_Subt6__0__13-55-54-585.txt Node

Date: Tue Feb 02 13:55:54 CET 2021
User: Praktikum
Spectrometer: USB4F03543
Trigger mode: 4
Integration Time (sec): 2,000000E-1
Scans to average: 9
Electric dark correction enabled: true
Nonlinearity correction enabled: false
Boxcar width: 0
XAxis mode: Wavelengths
Number of Pixels in Spectrum: 3648
>>>>>Begin Spectral Data<<<<<
179,969	393,91
180,181	393,91
180,394	393,91
180,606	375,25
180,819	335,89
181,031	-200,91
181,243	-232,54
181,456	150,2
181,668	199,13
181,88	-184,53
182,093	-58,92
182,305	194,58
182,518	213,46
182,73	-335,39
182,942	-175,42
183,155	190,02
183,367	240,31
183,579	-269,4
183,791	-184,3
184,004	177,51
184,216	164,31
184,428	-117,85
184,641	-158,58
184,853	238,72
185,065	223,48
185,277	-210,69
185,49	-185,21
185,702	198,67
185,914	137,92
186,126	-69,16
186,338	-157,45
186,551	302,89
186,763	155,66
186,975	-18,19
187,187	-168,37
187,399	224,84
187,612	276,72
187,824	-32,98
188,036	-148,57
188,248	158,85
188,46	266,25
188,672	-189,99
188,885	-78,94
189,097	273,54
189,309	180,24
189,521	-131,05
189,733	-253,25
189,945	284
190,157	215,74
190,369	-172,47
190,581	-40,26
190,794	201,18
191,006	222,56
191,218	-55,96
191,43	-146,07
191,642	185,47
191,854	202,09
192,066	-253,47
192,278	-130,82
192,49	266,94
192,702	101,96
192,914	-131,51
193,126	-110,34
193,338	279,91
193,55	306,08
193,762	-95,78
193,974	98,78
194,186	220,97
194,398	181,15
194,61	-57,55
194,822	-164,73
195,034	196,85
195,246	40,07
195,457	-124
195,669	-237,55
195,881	246,46
196,093	222,56
196,305	-141,97
196,517	51,9
196,729	286,51
196,941	169,32
197,153	-197,5
197,365	-268,49
197,576	232,35
197,788	216,42
198	-236,18
198,212	-368,84
198,424	221,43
198,636	230,07
198,847	26,42
199,059	-190,9
199,271	230,53
199,483	208
199,695	-111,71
199,906	-176,11
200,118	132,91
200,33	195,94
200,542	-237,32
200,753	-133,33
200,965	306,99
201,177	278,09
201,389	-140,61
201,6	23,23
201,812	166,36
202,024	198,22
202,235	7,53
202,447	-298,07
202,659	259,88
202,871	252,83
203,082	-149,71
203,294	-114,89
203,506	246,23
203,717	246
203,929	-150,85
204,141	24,82
204,352	274,45
204,564	109,24
204,775	-148,8
204,987	-278,05
205,199	248,05
205,41	142,92
205,622	-187,03
205,833	-180,43
206,045	206,64
206,257	119,26
206,468	-35,25
206,68	-72,12
206,891	214,6
207,103	139,51
207,314	-77,58
207,526	-222,75
207,737	263,07
207,949	134,27
208,16	-137,19
208,372	-104,88
208,583	196,4
208,795	195,94
209,006	-122,63
209,218	-222,53
209,429	212,78
209,641	160,22
209,852	-106,7
210,064	-208,42
210,275	252,37
210,487	145,2
210,698	-163,36
210,909	-217,07
211,121	232,58
211,332	235,31
211,544	-303,76
211,755	-270,31
211,966	187,29
212,178	182,06
212,389	-326,75
212,6	-112,85
212,812	103,33
213,023	270,12
213,234	-135,83
213,446	-210,24
213,657	220,06
213,868	271,94
214,08	-361,56
214,291	-169,73
214,502	218,01
214,714	161,81
214,925	-134,24
215,136	-99,65
215,347	137,01
215,559	153,62
215,77	29,15
215,981	-342,22
216,192	268,99
216,404	196,4
216,615	-244,6
216,826	-195,9
217,037	116,53
217,249	280,59
217,46	-314,69
217,671	-125,59
217,882	260,79
218,093	297,88
218,304	-220,48
218,516	-162,45
218,727	205,27
218,938	191,85
219,149	-297,39
219,36	-255,52
219,571	260,57
219,782	180,7
219,993	-311,5
220,205	-36,16
220,416	204,59
220,627	151,11
220,838	-185,66
221,049	-413,67
221,26	299,48
221,471	225,07
221,682	-144,7
221,893	-177,02
222,104	149,07
222,315	202,77
222,526	30,51
222,737	-133,78
222,948	248,28
223,159	196,17
223,37	-115,12
223,581	-62,1
223,792	227,34
224,003	155,89
224,214	2,07
224,425	-210,92
224,636	209,37
224,847	185,7
225,058	-129
225,269	-172,01
225,48	245,09
225,691	224,84
225,902	-201,59
226,112	-73,48
226,323	272,4
226,534	218,24
226,745	-135,37
226,956	-71,66
227,167	190,71
227,378	244,18
227,589	-50,73
227,799	-292,16
228,01	255,56
228,221	217,33
228,432	-131,05
228,643	-11,59
228,853	173,19
229,064	131,77
229,275	-118,08
229,486	-74,39
229,697	224,61
229,907	179,56
230,118	-113,98
230,329	98,55
230,54	230,07
230,75	186,38
230,961	-188,85
231,172	-101,01
231,383	202,31
231,593	229,16
231,804	59,87
232,015	-155,85
232,225	236,9
232,436	181,38
232,647	-243,01
232,857	-226,4
233,068	163,4
233,279	232,35
233,489	-128,55
233,7	-120,58
233,91	193,21
234,121	215,28
234,332	-141,97
234,542	-162,91
234,753	229,16
234,964	225,52
235,174	-87,59
235,385	-176,56
235,595	174,55
235,806	186,16
236,016	7,3
236,227	-120,81
236,437	255,1
236,648	267,62
236,858	-83,72
237,069	-25,92
237,279	191,85
237,49	238,95
237,7	-91
237,911	-164,27
238,121	177,28
238,332	190,48
238,542	-250,29
238,753	-64,61
238,963	257,61
239,174	215,28
239,384	-94,19
239,595	-61,42
239,805	232,35
240,015	146,56
240,226	-101,7
240,436	-145,84
240,647	290,38
240,857	173,41
241,067	-188,39
241,278	-478,98
241,488	256,7
241,698	175,23
241,909	-49,36
242,119	-190,9
242,329	166,36
242,54	234,17
242,75	-79,62
242,96	58,5
243,171	153,39
243,381	258,52
243,591	37,79
243,801	-207,74
244,012	108,33
244,222	187,07
244,432	47,8
244,642	103,33
244,853	261,02
245,063	169,55
245,273	-160,41
245,483	-189,3
245,694	135,87
245,904	216,42
246,114	-157,45
246,324	8,21
246,534	208,23
246,744	220,97
246,955	113,8
247,165	-243,23
247,375	69,42
247,585	225,3
247,795	-126,04
248,005	-209,78
248,215	294,47
248,425	179,33
248,636	-352,23
248,846	-36,84
249,056	299,48
249,266	249,64
249,476	-128,55
249,686	-118,08
249,896	222,56
250,106	136,78
250,316	-75,3
250,526	-278,96
250,736	265,12
250,946	150,66
251,156	-337,9
251,366	-93,05
251,576	200,26
251,786	263,3
251,996	-30,47
252,206	17,77
252,416	246,23
252,626	198,67
252,836	15,95
253,046	-91,68
253,256	251,01
253,466	227,34
253,676	-4,3
253,885	-191,12
254,095	185,25
254,305	176,37
254,515	-71,2
254,725	-64,61
254,935	205,5
255,145	200,49
255,355	-136,51
255,564	-60,28
255,774	234,4
255,984	4,8
256,194	-65,06
256,404	-47,54
256,614	237,13
256,823	210,28
257,033	-68,7
257,243	-139,47
257,453	353,86
257,662	211,19
257,872	-186,12
258,082	-79,4
258,292	162,95
258,501	279,23
258,711	-556,57
258,921	-238,46
259,131	195,49
259,34	139,28
259,55	-100,79
259,76	50,76
259,969	224,16
260,179	109,93
260,389	-78,26
260,598	-210,01
260,808	233,94
261,018	184,79
261,227	-166,55
261,437	82,85
261,647	309,26
261,856	197,08
262,066	-184,75
262,275	-370,66
262,485	259,43
262,694	186,38
262,904	-149,71
263,114	-209,1
263,323	197,53
263,533	230,53
263,742	-89,64
263,952	-115,58
264,161	215,97
264,371	182,74
264,58	-74,62
264,79	-36,16
264,999	-22,96
265,209	252,15
265,418	-88,95
265,628	-111,25
265,837	259,2
266,047	240,54
266,256	-265,53
266,466	-30,93
266,675	176,14
266,884	237,58
267,094	-154,26
267,303	-248,47
267,513	175,69
267,722	81,71
267,931	-129,69
268,141	-80,99
268,35	262,39
268,559	188,89
268,769	-9,99
268,978	67,37
269,187	209,82
269,397	191,85
269,606	102,64
269,815	-74,85
270,025	226,66
270,234	205,73
270,443	12,53
270,653	-47,77
270,862	318,36
271,071	267,62
271,28	-38,89
271,49	-153,58
271,699	145,2
271,908	156,57
272,117	-41,4
272,327	-114,89
272,536	237,13
272,745	164,54
272,954	-71,66
273,163	-205,69
273,372	21,64
273,582	85,12
273,791	-115,81
274	-43,44
274,209	29,6
274,418	124,49
274,627	-154,72
274,836	-67,11
275,046	-66,43
275,255	96,05
275,464	-11,59
275,673	74,66
275,882	39,84
276,091	158,4
276,3	-158,36
276,509	-62,56
276,718	114,25
276,927	1,84
277,136	-81,22
277,345	-88,27
277,554	36,65
277,763	69,42
277,972	-108,52
278,181	-56,19
278,39	79,89
278,599	45,98
278,808	40,52
279,017	-126,5
279,226	0,93
279,435	-58,01
279,644	-42,08
279,853	-68,02
280,062	-107,84
280,271	70,33
280,48	-83,49
280,688	-37,53
280,897	129,72
281,106	48,03
281,315	-29,34
281,524	-26,83
281,733	3,43
281,942	40,98
282,151	-90,09
282,359	-201,36
282,568	96,27
282,777	95,82
282,986	-96,69
283,195	-39,35
283,403	98,09
283,612	51,67
283,821	-40,94
284,03	-25,01
284,238	-90,09
284,447	102,19
284,656	-59,37
284,865	-20,23
285,073	90,13
285,282	43,71
285,491	-21,37
285,699	38,48
285,908	2,07
286,117	105,38
286,325	-111,71
286,534	-190,67
286,743	107,65
286,951	26,87
287,16	-165,41
287,369	-24,78
287,577	42,12
287,786	114,71
287,995	-24,33
288,203	12,53
288,412	-22,96
288,62	34,15
288,829	-43,22
289,037	88,31
289,246	58,95
289,455	158,4
289,663	-131,96
289,872	-210,92
290,08	-39,8
290,289	106,97
290,497	-16,36
290,706	-112,16
290,914	84,67
291,123	96,27
291,331	-19,55
291,54	-114,89
291,748	86,72
291,957	26,42
292,165	-95,78
292,373	78,07
292,582	74,66
292,79	2,07
292,999	-57,1
293,207	-93,5
293,415	62,37
293,624	86,26
293,832	-133,33
294,041	-78,03
294,249	74,2
294,457	162,26
294,666	-143,79
294,874	23,46
295,082	57,82
295,291	72,61
295,499	-45,95
295,707	-73,25
295,915	-16,59
296,124	61,91
296,332	-85,31
296,54	-59,6
296,749	-21,37
296,957	79,89
297,165	-39,58
297,373	-15,68
297,581	30,06
297,79	63,28
297,998	10,49
298,206	18
298,414	-2,94
298,622	119,03
298,831	-162,91
299,039	-31,16
299,247	-26,6
299,455	58,5
299,663	-191,58
299,871	-73,03
300,08	45,53
300,288	114,71
300,496	-112,62
300,704	-54,82
300,912	164,99
301,12	126,31
301,328	-121,27
301,536	-40,94
301,744	107,65
301,952	100,6
302,16	12,99
302,368	23
302,576	-17,5
302,784	-1,57
302,992	111,29
303,2	6,39
303,408	30,06
303,616	84,44
303,824	-78,94
304,032	-176,33
304,24	-83,27
304,448	-20,01
304,656	-20,69
304,864	-165,87
305,072	34,15
305,28	8,21
305,488	-42,99
305,696	-43,22
305,904	36,43
306,111	69,42
306,319	-59,83
306,527	-42,99
306,735	-47,99
306,943	2,52
307,151	-164,96
307,359	40,98
307,566	136,1
307,774	9,35
307,982	-155,4
308,19	0,47
308,398	53,72
308,605	73,97
308,813	12,53
309,021	-19,1
309,229	-3,85
309,436	116,3
309,644	-139,02
309,852	-152,44
310,06	28,46
310,267	42,8
310,475	-106,48
310,683	-11,36
310,89	36,43
311,098	50,76
311,306	-45,49
311,513	-205,23
311,721	108,79
311,929	4,34
312,136	-14,77
312,344	-38,66
312,552	-46,63
312,759	149,98
312,967	-135,15
313,174	-130,82
313,382	37,57
313,589	-0,66
313,797	-13,18
314,005	-151,99
314,212	85,12
314,42	71,93
314,627	-78,26
314,835	6,62
315,042	54,18
315,25	48,49
315,457	-53,91
315,665	139,74
315,872	33,92
316,08	233,49
316,287	-15
316,495	67,37
316,702	-29,11
316,909	154,3
317,117	-121,04
317,324	-69,38
317,532	-101,24
317,739	124,95
317,946	-17,5
318,154	-26,83
318,361	76,02
318,569	-145,84
318,776	48,26
318,983	89,9
319,191	45,98
319,398	-1,57
319,605	-73,71
319,813	-130,6
320,02	92,41
320,227	33,47
320,434	-104,88
320,642	-77,8
320,849	119,94
321,056	10,71
321,264	-7,72
321,471	-77,58
321,678	-14,54
321,885	166,81
322,092	-136,06
322,3	61,91
322,507	119,48
322,714	14,58
322,921	-12,95
323,128	-41,4
323,336	69,88
323,543	93,09
323,75	-77,12
323,957	-127,18
324,164	11,62
324,371	109,24
324,578	95,82
324,786	-77,8
324,993	70,79
325,2	-13,86
325,407	130,63
325,614	42,34
325,821	35,29
326,028	80,8
326,235	-32,75
326,442	-56,87
326,649	59,64
326,856	102,19
327,063	54,4
327,27	-80,76
327,477	81,26
327,684	148,61
327,891	-17,73
328,098	-75,07
328,305	69,19
328,512	155,66
328,719	-78,26
328,926	-27,51
329,133	270,35
329,34	165,45
329,546	294,02
329,753	421,67
329,96	659,01
330,167	524,07
330,374	342,71
330,581	262,39
330,788	399,15
330,995	154,3
331,201	43,71
331,408	3,43
331,615	131,77
331,822	17,09
332,029	-52,55
332,235	-40,94
332,442	8,21
332,649	93,77
332,856	27,55
333,062	-46,86
333,269	85,12
333,476	170,23
333,683	-15,45
333,889	-147,43
334,096	0,47
334,303	97,64
334,509	-55,05
334,716	-70,98
334,923	76,02
335,129	-33,66
335,336	34,15
335,543	-119,22
335,749	73,52
335,956	52,13
336,163	94,91
336,369	-107,61
336,576	151,11
336,782	17,31
336,989	43,71
337,196	-89,18
337,402	70,33
337,609	169,09
337,815	-10,9
338,022	-109,21
338,228	-41,4
338,435	155,21
338,641	-136,06
338,848	-101,47
339,054	58,73
339,261	148,61
339,467	56,68
339,674	-24,1
339,88	4,11
340,087	91,72
340,293	29,83
340,5	-3,17
340,706	-88,95
340,912	145,65
341,119	25,05
341,325	-76,21
341,532	28,01
341,738	137,46
341,944	-88,5
342,151	-75,98
342,357	5,94
342,563	-9,54
342,77	-80,76
342,976	115,62
343,182	130,86
343,389	60,09
343,595	-59,6
343,801	61,23
344,007	-19,1
344,214	172,28
344,42	-75,76
344,626	36,2
344,832	62,82
345,039	153,84
345,245	-64,38
345,451	-18,41
345,657	-26,15
345,864	91,95
346,07	-93,5
346,276	-18,19
346,482	50,99
346,688	-56,41
346,894	-3,62
347,1	-12,27
347,307	97,64
347,513	11,4
347,719	-80,08
347,925	-38,66
348,131	106,74
348,337	108,33
348,543	5,48
348,749	8,21
348,955	125,63
349,161	42,12
349,367	-118,31
349,573	-128,09
349,779	39,16
349,985	88,99
350,191	-24,78
350,397	-103,74
350,603	14,81
350,809	84,44
351,015	-88,95
351,221	-27,29
351,427	-53,68
351,633	-102,38
351,839	-159,27
352,045	-73,94
352,251	111,97
352,457	78,3
352,663	-102,15
352,869	-70,29
353,075	15,49
353,28	88,99
353,486	-30,25
353,692	-87,59
353,898	115,62
354,104	15,72
354,31	-142,66
354,515	28,92
354,721	96,73
354,927	96,05
355,133	-85,77
355,339	-16,14
355,544	164,77
355,75	-71,89
355,956	9,8
356,162	-122,4
356,367	246,69
356,573	-118,08
356,779	-8,4
356,984	-50,95
357,19	-2,94
357,396	68,06
357,602	-224,12
357,807	-78,49
358,013	76,7
358,218	117,66
358,424	3,89
358,63	10,94
358,835	63,73
359,041	101,28
359,247	-27,74
359,452	6,85
359,658	146,11
359,863	68,28
360,069	-96,46
360,274	-58,01
360,48	166,59
360,685	171,14
360,891	-108,75
361,097	-15,23
361,302	134,05
361,508	45,76
361,713	-34,57
361,918	-220,48
362,124	46,21
362,329	-50,73
362,535	-64,15
362,74	-29,11
362,946	117,44
363,151	81,48
363,357	-38,66
363,562	104,01
363,767	107,2
363,973	18,22
364,178	32,56
364,383	-52,55
364,589	16,63
364,794	94,45
365	-67,79
365,205	-46,17
365,41	55,54
365,615	77,39
365,821	66,24
366,026	-147,43
366,231	35,29
366,437	-58,46
366,642	63,51
366,847	-76,67
367,052	104,92
367,258	23,91
367,463	0,25
367,668	29,6
367,873	-32,98
368,078	34,15
368,284	176,83
368,489	-9,54
368,694	92,63
368,899	107,88
369,104	-228,67
369,309	-154,26
369,515	-44,81
369,72	69,42
369,925	78,98
370,13	-77,35
370,335	56
370,54	122,67
370,745	-140,84
370,95	-94,42
371,155	126,99
371,36	-7,95
371,565	-130,14
371,77	-122,86
371,975	127,68
372,18	101,05
372,385	-121,04
372,59	-75,98
372,795	57,82
373	99,46
373,205	-180,2
373,41	2,75
373,615	44,62
373,82	162,26
374,025	-118,31
374,23	79,66
374,435	147,93
374,64	101,73
374,845	-98,06
375,05	-16,82
375,254	89,9
375,459	66,69
375,664	58,5
375,869	-69,38
376,074	81,94
376,279	69,19
376,483	-155,63
376,688	-8,63
376,893	118,8
377,098	136,78
377,303	-110,57
377,507	-97,83
377,712	167,72
377,917	3,43
378,122	-95,78
378,326	-15
378,531	61,46
378,736	137,23
378,94	56
379,145	-44,81
379,35	20,5
379,554	96,73
379,759	-10,45
379,964	-102,61
380,168	148,84
380,373	71,24
380,578	-165,18
380,782	-420,04
380,987	-35,93
381,191	198,9
381,396	-111,48
381,601	-4,99
381,805	52,36
382,01	85,81
382,214	-85,31
382,419	-11,36
382,623	78,75
382,828	51,45
383,032	35,29
383,237	40,98
383,441	76,25
383,646	21,18
383,85	48,49
384,055	-171,78
384,259	161,35
384,464	128,59
384,668	-3,17
384,872	-69,38
385,077	27,78
385,281	75,57
385,486	37,34
385,69	-88,73
385,894	75,79
386,099	-7,72
386,303	-116,72
386,507	-175,2
386,712	-47,54
386,916	96,5
387,12	21,64
387,325	-134,69
387,529	36,65
387,733	-9,08
387,937	-53
388,142	4,11
388,346	81,94
388,55	73,52
388,754	-27,06
388,959	42,57
389,163	-57,1
389,367	117,66
389,571	-2,48
389,775	-108,98
389,98	68,74
390,184	-50,04
390,388	-90,55
390,592	-125,82
390,796	43,03
391	8,67
391,204	-75,53
391,409	16,63
391,613	77,16
391,817	134,5
392,021	-115,35
392,225	7,76
392,429	38,48
392,633	-8,63
392,837	-70,52
393,041	-4,76
393,245	-60,96
393,449	120,62
393,653	-31,61
393,857	-79,4
394,061	-81,22
394,265	103,1
394,469	-63,47
394,673	-199,09
394,877	4,11
395,081	99
395,285	-208,19
395,489	-46,86
395,693	88,08
395,896	95,59
396,1	-167
396,304	3,66
396,508	114,25
396,712	60,32
396,916	24,37
397,12	-52,09
397,323	135,41
397,527	-30,25
397,731	-206,6
397,935	-72,34
398,139	23
398,342	12,53
398,546	-12,72
398,75	-39,12
398,954	-1,57
399,157	-60,96
399,361	-117,4
399,565	-18,19
399,769	14,58
399,972	35,06
400,176	-20,69
400,38	-92,82
400,583	119,94
400,787	2,29
400,991	-126,5
401,194	-150,85
401,398	59,87
401,601	15,04
401,805	-126,73
402,009	-49,13
402,212	24,82
402,416	29,37
402,619	48,03
402,823	-239,82
403,026	105,15
403,23	20,5
403,433	-170,19
403,637	-117,63
403,841	47,58
404,044	-16,14
404,247	-20,01
404,451	-170,19
404,654	53,49
404,858	47,35
405,061	-68,47
405,265	-78,94
405,468	-4,99
405,672	51,22
405,875	-185,89
406,078	-11,13
406,282	57,59
406,485	110,84
406,689	-172,01
406,892	-219,8
407,095	58,04
407,299	89,9
407,502	-134,69
407,705	42,57
407,909	58,95
408,112	48,94
408,315	-149,48
408,518	-176,79
408,722	14,13
408,925	58,95
409,128	-175,42
409,331	-107,61
409,535	119,03
409,738	133,14
409,941	-233,68
410,144	-48,9
410,347	135,64
410,551	47,58
410,754	10,03
410,957	-115,81
411,16	92,63
411,363	60,55
411,566	-111,25
411,769	-46,4
411,973	66,69
412,176	89,67
412,379	-290,34
412,582	-131,73
412,785	-87,59
412,988	47,12
413,191	-95,78
413,394	-80,76
413,597	111,75
413,8	-16,59
414,003	-185,44
414,206	-21,6
414,409	27,33
414,612	44,39
414,815	-80,53
415,018	-47,99
415,221	113,11
415,424	-11,59
415,627	-98,06
415,83	5,94
416,033	39,16
416,235	175,46
416,438	-179,06
416,641	-240,05
416,844	123,12
417,047	163,86
417,25	21,41
417,453	-34,8
417,655	39,16
417,858	20,04
418,061	-102,38
418,264	-67,34
418,467	100,82
418,669	125,17
418,872	-113,76
419,075	138,83
419,278	203,91
419,48	67,15
419,683	62,82
419,886	123,81
420,089	92,86
420,291	124,49
420,494	53,04
420,697	-76,67
420,899	30,28
421,102	124,49
421,305	-145,16
421,507	-169,73
421,71	99,91
421,912	122,9
422,115	-30,25
422,318	-145,61
422,52	78,75
422,723	95,82
422,925	-144,7
423,128	-268,72
423,33	12,99
423,533	154,3
423,735	-122,4
423,938	-4,76
424,14	104,47
424,343	148,16
424,545	-201,82
424,748	-210,24
424,95	-30,47
425,153	72,15
425,355	-60,28
425,558	-185,66
425,76	79,66
425,962	-7,04
426,165	-25,24
426,367	-17,73
426,57	161,81
426,772	121,76
426,974	-135,83
427,177	-31,84
427,379	53,72
427,581	129,04
427,784	-1,8
427,986	-51,86
428,188	165,22
428,39	118,8
428,593	-60,05
428,795	-53,91
428,997	96,05
429,2	77,39
429,402	-115,58
429,604	52,36
429,806	71,47
430,008	-91,46
430,211	-110,8
430,413	6,62
430,615	49,85
430,817	119,94
431,019	-52,55
431,221	-120,81
431,423	3,2
431,626	6,62
431,828	-12,95
432,03	64,87
432,232	129,27
432,434	73,75
432,636	-3,17
432,838	65,33
433,04	-65,29
433,242	38,02
433,444	-71,66
433,646	-247,79
433,848	98,32
434,05	19,82
434,252	-15
434,454	-107,84
434,656	24,37
434,858	-61,19
435,06	-158,36
435,262	-309,45
435,464	-66,43
435,666	-148,8
435,868	-329,93
436,07	-248,7
436,271	32,56
436,473	55,09
436,675	-218,2
436,877	-236,18
437,079	31,88
437,281	41,66
437,482	-78,03
437,684	-24,56
437,886	-12,72
438,088	96,96
438,29	-156,76
438,491	-106,02
438,693	157,03
438,895	101,96
439,097	-200,68
439,298	-72,57
439,5	-31,38
439,702	85,58
439,903	-104,2
