Data from Na 1_Subt6__0__13-41-30-170.txt Node

Date: Tue Feb 02 13:41:30 CET 2021
User: Praktikum
Spectrometer: USB4F03543
Trigger mode: 4
Integration Time (sec): 1,000000E-1
Scans to average: 6
Electric dark correction enabled: true
Nonlinearity correction enabled: false
Boxcar width: 0
XAxis mode: Wavelengths
Number of Pixels in Spectrum: 3648
>>>>>Begin Spectral Data<<<<<
179,969	585,24
180,181	585,24
180,394	585,24
180,606	540,86
180,819	501,27
181,031	-248,29
181,243	-317,92
181,456	188,95
181,668	186,22
181,88	-255,11
182,093	-33,59
182,305	277,7
182,518	265,41
182,73	-386,53
182,942	-189,92
183,155	262,68
183,367	250,39
183,579	-327,82
183,791	9,07
184,004	537,45
184,216	527,55
184,428	224,11
184,641	167,11
184,853	606,4
185,065	596,5
185,277	64,71
185,49	115,91
185,702	571,58
185,914	541,55
186,126	256,88
186,338	131,27
186,551	697,53
186,763	513,56
186,975	315,24
187,187	113,86
187,399	608,1
187,612	632,34
187,824	278,38
188,036	147,65
188,248	479,77
188,46	616,64
188,672	81,09
188,885	277,02
189,097	611,18
189,309	571,24
189,521	173,94
189,733	64,71
189,945	642,92
190,157	499,9
190,369	177,35
190,581	272,92
190,794	522,09
191,006	546,32
191,218	245,61
191,43	123,76
191,642	549,74
191,854	540,52
192,066	13,17
192,278	171,2
192,49	634,39
192,702	438,12
192,914	172,91
193,126	164,04
193,338	656,23
193,55	682,17
193,762	173,94
193,974	484,2
194,186	589,67
194,398	536,08
194,61	243,57
194,822	94,06
195,034	553,15
195,246	328,9
195,457	213,19
195,669	65,73
195,881	657,6
196,093	726,55
196,305	264,39
196,517	536,08
196,729	728,93
196,941	598,21
197,153	63,69
197,365	-45,88
197,576	636,09
197,788	611,18
198	64,03
198,212	-139,06
198,424	551,44
198,636	572,95
198,847	360,64
199,059	92,36
199,271	633,7
199,483	533,35
199,695	196,8
199,906	125,13
200,118	526,87
200,33	534,04
200,542	-237,71
200,753	233,33
200,965	689
201,177	653,5
201,389	148,34
201,6	395,8
201,812	554,86
202,024	547,35
202,235	344,26
202,447	-26,08
202,659	605,72
202,871	573,97
203,082	152,09
203,294	249,71
203,506	607,76
203,717	604,01
203,929	170,52
204,141	378,73
204,352	658,96
204,564	479,77
204,775	167,79
204,987	-16,18
205,199	622,78
205,41	500,59
205,622	98,5
205,833	173,94
206,045	543,59
206,257	490,69
206,468	267,12
206,68	273,6
206,891	496,49
207,103	489,32
207,314	288,62
207,526	67,78
207,737	684,56
207,949	482,5
208,16	188,27
208,372	229,91
208,583	603,67
208,795	580,12
209,006	198,51
209,218	78,36
209,429	585,24
209,641	509,8
209,852	218,65
210,064	137,41
210,275	592,06
210,487	533,69
210,698	83,48
210,909	54,81
211,121	570,22
211,332	561
211,544	-2,53
211,755	-19,6
211,966	486,25
212,178	537,45
212,389	-122,68
212,6	185,88
212,812	438,81
213,023	653,84
213,234	131,95
213,446	89,29
213,657	615,96
213,868	638,48
214,08	-131,21
214,291	142,87
214,502	571,92
214,714	563,05
214,925	203,29
215,136	249,37
215,347	476,35
215,559	546,67
215,77	376,68
215,981	-96,74
216,192	684,56
216,404	584,89
216,615	49,35
216,826	107,72
217,037	526,19
217,249	619,03
217,46	-54,41
217,671	218,99
217,882	652,48
218,093	697,19
218,304	124,44
218,516	154,82
218,727	604,01
218,938	556,56
219,149	-73,19
219,36	53,1
219,571	629,61
219,782	581,14
219,993	-37,35
220,205	317,98
220,416	551,79
220,627	543,59
220,838	124,78
221,049	-226,44
221,26	671,93
221,471	623,12
221,682	168,82
221,893	80,07
222,104	553,83
222,315	615,27
222,526	396,82
222,737	197,49
222,948	678,76
223,159	559,29
223,37	225,13
223,581	307,74
223,792	558,61
224,003	506,39
224,214	367,47
224,425	81,44
224,636	621,42
224,847	518,34
225,058	182,13
225,269	126,15
225,48	650,43
225,691	620,05
225,902	96,11
226,112	317,29
226,323	684,56
226,534	597,86
226,745	234,69
226,956	288,28
227,167	619,71
227,378	577,04
227,589	287,26
227,799	-64,31
228,01	685,24
228,221	632,34
228,432	235,37
228,643	444,95
228,853	606,4
229,064	616,3
229,275	345,62
229,486	416,96
229,697	762,04
229,907	758,97
230,118	409,11
230,329	607,76
230,54	769,21
230,75	617,66
230,961	138,78
231,172	269,17
231,383	597,86
231,593	682,51
231,804	311,49
232,015	217,28
232,225	667,84
232,436	547,01
232,647	64,71
232,857	106,35
233,068	579,43
233,279	603,67
233,489	283,16
233,7	261,32
233,91	656,57
234,121	647,02
234,332	273,6
234,542	299,54
234,753	732,35
234,964	738,15
235,174	353,47
235,385	230,25
235,595	690,71
235,806	698,56
236,016	502,98
236,227	417,3
236,437	825,53
236,648	813,58
236,858	393,75
237,069	518,34
237,279	776,38
237,49	796,86
237,7	443,93
237,911	359,96
238,121	786,28
238,332	789,01
238,542	281,45
238,753	529,94
238,963	896,87
239,174	794,47
239,384	509,46
239,595	538,47
239,805	807,1
240,015	785,6
240,226	466,11
240,436	362,69
240,647	921,44
240,857	796,18
241,067	383,85
241,278	-59,19
241,488	898,23
241,698	772,62
241,909	549,4
242,119	395,8
242,329	791,06
242,54	842,26
242,75	488,64
242,96	651,11
243,171	747,37
243,381	914,28
243,591	633,02
243,801	303,64
244,012	768,87
244,222	805,73
244,432	688,32
244,642	726,2
244,853	935,78
245,063	842,26
245,273	453,82
245,483	484,2
245,694	861,37
245,904	838,84
246,114	454,17
246,324	699,92
246,534	865,12
246,744	917,35
246,955	860,35
247,165	341,19
247,375	732,01
247,585	965,82
247,795	495,81
248,005	470,55
248,215	1023,16
248,425	876,05
248,636	180,42
248,846	720,06
249,056	1068,9
249,266	1040,91
249,476	616,3
249,686	603,33
249,896	1022,48
250,106	932,37
250,316	634,73
250,526	316,95
250,736	1063,78
250,946	836,45
251,156	351,77
251,366	659,99
251,576	956,6
251,786	1002,68
251,996	685,24
252,206	777,4
252,416	980,49
252,626	1013,26
252,836	783,55
253,046	649,41
253,256	1006,09
253,466	972,3
253,676	698,56
253,885	485,23
254,095	947,73
254,305	906,43
254,515	621,07
254,725	636,78
254,935	952,16
255,145	923,49
255,355	521,41
255,564	630,63
255,774	929,64
255,984	692,75
256,194	598,21
256,404	635,07
256,614	956,26
256,823	889,02
257,033	646,67
257,243	514,24
257,453	1099,28
257,662	939,53
257,872	477,03
258,082	640,87
258,292	924,52
258,501	1001,31
258,711	-18,57
258,921	356,2
259,131	909,16
259,34	870,24
259,55	561,68
259,76	749,07
259,969	931
260,179	832,02
260,389	565,78
260,598	394,77
260,808	900,28
261,018	883,21
261,227	414,57
261,437	767,85
261,647	975,37
261,856	928,61
262,066	417,64
262,275	173,94
262,485	903,35
262,694	830,65
262,904	533,35
263,114	428,57
263,323	909,16
263,533	913,93
263,742	620,39
263,952	521,07
264,161	947,04
264,371	904,38
264,58	575,34
264,79	627,56
264,999	652,82
265,209	935,1
265,418	520,04
265,628	498,88
265,837	939,88
266,047	922,47
266,256	321,73
266,466	584,55
266,675	918,37
266,884	904,04
267,094	447,34
267,303	339,14
267,513	797,54
267,722	705,04
267,931	481,47
268,141	544,62
268,35	909,16
268,559	862,39
268,769	629,61
268,978	783,89
269,187	885,6
269,397	873,32
269,606	773,31
269,815	616,64
270,025	837,82
270,234	821,43
270,443	706,07
270,653	595,82
270,862	1031,01
271,071	901,65
271,28	586,26
271,49	411,16
271,699	820,07
271,908	786,62
272,117	552,47
272,327	512,19
272,536	935,1
272,745	850,45
272,954	568,85
273,163	360,98
273,372	592,4
273,582	758,63
273,791	462,7
274	593,43
274,209	641,21
274,418	712,21
274,627	347,33
274,836	547,35
275,046	535,74
275,255	673,3
275,464	567,83
275,673	647,7
275,882	533,35
276,091	643,6
276,3	311,15
276,509	354,84
276,718	519,02
276,927	463,72
277,136	313,2
277,345	346,99
277,554	405,01
277,763	428,57
277,972	284,53
278,181	301,59
278,39	495,47
278,599	459,63
278,808	477,72
279,017	246,3
279,226	496,83
279,435	396,14
279,644	389,65
279,853	312,51
280,062	227,86
280,271	544,28
280,48	324,8
280,688	395,46
280,897	524,48
281,106	492,74
281,315	427,54
281,524	379,07
281,733	382,49
281,942	428,57
282,151	290,67
282,359	202,27
282,568	554,52
282,777	545,3
282,986	329,24
283,195	422,76
283,403	595,82
283,612	692,75
283,821	704,36
284,03	762,38
284,238	724,5
284,447	849,76
284,656	641,9
284,865	507,41
285,073	558,27
285,282	515,6
285,491	363,71
285,699	481,47
285,908	402,97
286,117	501,61
286,325	267,8
286,534	114,2
286,743	523,8
286,951	415,6
287,16	229,91
287,369	365,42
287,577	435,05
287,786	525,84
287,995	363,03
288,203	432,32
288,412	386,24
288,62	426,52
288,829	419,69
289,037	484,89
289,246	477,72
289,455	584,89
289,663	242,88
289,872	163,7
290,08	393,41
290,289	464,75
290,497	447,34
290,706	259,95
290,914	570,22
291,123	577,04
291,331	362,01
291,54	286,57
291,748	458,26
291,957	410,13
292,165	299,2
292,373	560,66
292,582	481,47
292,79	372,59
292,999	281,11
293,207	273,6
293,415	512,87
293,624	522,09
293,832	283,5
294,041	319,68
294,249	499,9
294,457	618,69
294,666	225,82
294,874	456,21
295,082	433,34
295,291	441,88
295,499	429,59
295,707	300,91
295,915	403,31
296,124	448,02
296,332	363,03
296,54	381,12
296,749	351,43
296,957	490
297,165	416,62
297,373	427,54
297,581	486,93
297,79	516,97
297,998	453,14
298,206	438,12
298,414	426,18
298,622	501,95
298,831	186,56
299,039	416,62
299,247	420,03
299,455	484,89
299,663	169,5
299,871	375,66
300,08	488,3
300,288	533,69
300,496	291,69
300,704	396,48
300,912	581,82
301,12	532,33
301,328	291,69
301,536	422,42
301,744	592,06
301,952	516,97
302,16	465,09
302,368	449,05
302,576	386,24
302,784	386,92
302,992	621,76
303,2	444,95
303,408	576,36
303,616	655,55
303,824	559,98
304,032	561,34
304,24	719,38
304,448	821,09
304,656	830,65
304,864	529,6
305,072	630,29
305,28	519,36
305,488	415,6
305,696	366,1
305,904	482,84
306,111	565,44
306,319	385,22
306,527	412,18
306,735	368,83
306,943	441,88
307,151	282,48
307,359	508,44
307,566	484,2
307,774	383,51
307,982	278,38
308,19	484,89
308,398	542,91
308,605	531,65
308,813	536,08
309,021	460,65
309,229	436,08
309,436	586,94
309,644	212,51
309,852	312,51
310,06	423,1
310,267	513,9
310,475	328,22
310,683	403,31
310,89	509,12
311,098	483,18
311,306	394,43
311,513	183,83
311,721	561
311,929	439,15
312,136	389,31
312,344	408,09
312,552	371,91
312,759	594,11
312,967	285,89
313,174	252,44
313,382	467,82
313,589	408,43
313,797	354,16
314,005	254,49
314,212	495,12
314,42	558,61
314,627	374,98
314,835	495,47
315,042	503,66
315,25	555,54
315,457	446,66
315,665	661,01
315,872	414,23
316,08	672,62
316,287	456,9
316,495	272,24
316,702	487,27
316,909	663,4
317,117	316,95
317,324	373,61
317,532	298,18
317,739	606,4
317,946	460,99
318,154	471,57
318,361	561,68
318,569	313,54
318,776	570,22
318,983	625,85
319,191	526,87
319,398	492,05
319,605	403,99
319,813	317,63
320,02	671,93
320,227	486,25
320,434	361,67
320,642	431,98
320,849	632
321,056	515,95
321,264	477,72
321,471	428,91
321,678	526,53
321,885	706,75
322,092	345,62
322,3	543,59
322,507	714,26
322,714	577,38
322,921	565,44
323,128	554,52
323,336	654,18
323,543	657,6
323,75	429,25
323,957	378,39
324,164	511,85
324,371	627,9
324,578	685,93
324,786	423,1
324,993	648,72
325,2	493,08
325,407	732,01
325,614	576,36
325,821	548,03
326,028	576,02
326,235	472,94
326,442	501,61
326,649	654,53
326,856	607,76
327,063	675
327,27	488,64
327,477	699,92
327,684	779,79
327,891	721,43
328,098	812,56
328,305	1441,29
328,512	2257,06
328,719	3363,65
328,926	5274,06
329,133	9758,77
329,34	16896,62
329,546	32269,02
329,753	49455,91
329,96	60178,74
330,167	59970,53
330,374	57207,13
330,581	45444,63
330,788	25741,8
330,995	12660,4
331,201	6796,38
331,408	3741,84
331,615	2442,06
331,822	1416,03
332,029	964,79
332,235	804,71
332,442	765,46
332,649	775,01
332,856	730,98
333,062	640,87
333,269	756,92
333,476	768,87
333,683	627,22
333,889	489,32
334,096	665,11
334,303	698,56
334,509	563,39
334,716	603,33
334,923	679,78
335,129	634,73
335,336	625,17
335,543	505,71
335,749	696,85
335,956	619,03
336,163	787,98
336,369	555,2
336,576	768,87
336,782	664,42
336,989	721,43
337,196	531,99
337,402	739,17
337,609	878,1
337,815	655,55
338,022	484,54
338,228	607,08
338,435	705,04
338,641	463,04
338,848	474,65
339,054	681,49
339,261	838,84
339,467	782,86
339,674	645,31
339,88	686,27
340,087	802,32
340,293	735,42
340,5	650,43
340,706	582,5
340,912	832,36
341,119	746,34
341,325	614,59
341,532	700,6
341,738	848,74
341,944	580,12
342,151	607,08
342,357	769,21
342,563	668,52
342,77	618
342,976	813,93
343,182	759,65
343,389	775,01
343,595	659,99
343,801	788,67
344,007	689
344,214	976,06
344,42	644,29
344,626	770,92
344,832	800,95
345,039	897,21
345,245	620,39
345,451	723,81
345,657	707,77
345,864	811,19
346,07	651,11
346,276	699,92
346,482	737,13
346,688	609,47
346,894	732,01
347,1	719,72
347,307	808,81
347,513	671,59
347,719	662,03
347,925	636,43
348,131	924,52
348,337	780,48
348,543	771,6
348,749	773,99
348,955	808,12
349,161	814,61
349,367	639,85
349,573	558,27
349,779	792,08
349,985	862,74
350,191	732,01
350,397	633,02
350,603	722,11
350,809	877,07
351,015	693,1
351,221	793,79
351,427	640,87
351,633	685,24
351,839	613,57
352,045	707,77
352,251	833,72
352,457	870,93
352,663	642,24
352,869	671,93
353,075	768,87
353,28	922,47
353,486	780,13
353,692	706,75
353,898	899,6
354,104	856,25
354,31	619,37
354,515	915,64
354,721	1006,78
354,927	1054,56
355,133	841,23
355,339	957,62
355,544	1162,08
355,75	885,95
355,956	917,35
356,162	814,27
356,367	1198,6
356,573	810,51
356,779	936,8
356,984	821,78
357,19	853,18
357,396	968,89
357,602	639,51
357,807	886,29
358,013	1170,95
358,218	1284,28
358,424	1256,29
358,63	1285,3
358,835	1317,73
359,041	1324,21
359,247	1077,09
359,452	1093,81
359,658	1179,15
359,863	1051,83
360,069	868,54
360,274	874,68
360,48	1084,26
360,685	1125,22
360,891	743,61
361,097	905,4
361,302	1005,41
361,508	875,02
361,713	820,41
361,918	562,37
362,124	973,33
362,329	837,14
362,535	888,68
362,74	952,16
362,946	1090,74
363,151	1034,42
363,357	955,58
363,562	1061,39
363,767	1079,14
363,973	949,09
364,178	1018,72
364,383	937,83
364,589	974,01
364,794	1084,6
365	822,12
365,205	934,76
365,41	995,85
365,615	996,88
365,821	1023,5
366,026	775,36
366,231	954,89
366,437	870,59
366,642	1098,25
366,847	819,05
367,052	1031,35
367,258	1012,58
367,463	1004,73
367,668	972,3
367,873	871,27
368,078	952,5
368,284	1235,81
368,489	994,83
368,694	1046,03
368,899	1052,51
369,104	736,79
369,309	788,67
369,515	992,1
369,72	994,15
369,925	1062,41
370,13	865,47
370,335	991,07
370,54	1067,87
370,745	811,54
370,95	858,3
371,155	1015,31
371,36	958,31
371,565	857,62
371,77	848,4
371,975	1121,12
372,18	1060,36
372,385	743,61
372,59	887,31
372,795	1000,63
373	996,88
373,205	739,86
373,41	931,34
373,615	1087,67
373,82	1184,27
374,025	888,33
374,23	1122,83
374,435	1184,61
374,64	1071,97
374,845	834,41
375,05	974,01
375,254	1121,8
375,459	1086,65
375,664	1064,12
375,869	913,25
376,074	1114,98
376,279	1091,77
376,483	830,65
376,688	1035,11
376,893	1156,62
377,098	1200,99
377,303	885,95
377,507	875,71
377,712	1162,42
377,917	1000,63
378,122	867,86
378,326	984,93
378,531	1059,68
378,736	1143,99
378,94	1051,15
379,145	968,55
379,35	1027,26
379,554	1044,32
379,759	992,44
379,964	866,15
380,168	1147,4
380,373	1094,84
380,578	730,64
380,782	471,23
380,987	912,57
381,191	1181,54
381,396	824,85
381,601	1009,17
381,805	1021,79
382,01	997,22
382,214	875,36
382,419	983,91
382,623	1085,62
382,828	1087,67
383,032	1131,7
383,237	1162,42
383,441	1157,64
383,646	962,74
383,85	1088,69
384,055	791,4
384,259	1117,71
384,464	1120,44
384,668	982,2
384,872	908,13
385,077	1024,52
385,281	1041,25
385,486	1039,54
385,69	886,29
385,894	963,77
386,099	962,4
386,303	915,64
386,507	838,84
386,712	947,04
386,916	1159,01
387,12	1094,5
387,325	829,97
387,529	966,5
387,733	959,33
387,937	999,61
388,142	1044,66
388,346	1200,99
388,55	1077,77
388,754	1059,34
388,959	1132,73
389,163	1035,79
389,367	1143,99
389,571	1031,69
389,775	865,81
389,98	1052,86
390,184	933,05
390,388	937,49
390,592	872,98
390,796	1022,14
391	1042,96
391,204	949,43
391,409	1077,43
391,613	1130,34
391,817	1238,88
392,021	1005,07
392,225	1148,09
392,429	1195,19
392,633	1125,22
392,837	1029,64
393,041	1014,28
393,245	1009,17
393,449	1268,92
393,653	1256,63
393,857	1283,59
394,061	1439,58
394,265	1789,44
394,469	1644,04
394,673	1388,38
394,877	1460,4
395,081	1352,54
395,285	829,63
395,489	977,08
395,693	1110,2
395,896	1070,95
396,1	791,06
396,304	938,17
396,508	1133,41
396,712	1045
396,916	1040,57
397,12	922,81
397,323	1067,87
397,527	958,99
397,731	747,37
397,935	889,7
398,139	1029,3
398,342	955,58
398,546	955,58
398,75	995,51
398,954	996,88
399,157	843,96
399,361	826,9
399,565	1029,3
399,769	943,63
399,972	1009,85
400,176	994,15
400,38	932,02
400,583	1151,5
400,787	993,12
400,991	835,77
401,194	833,38
401,398	1056,61
401,601	1031,35
401,805	874,68
402,009	983,22
402,212	1056,95
402,416	955,92
402,619	1170,95
402,823	844,64
403,026	1413,64
403,23	1575,77
403,433	1636,53
403,637	2005,5
403,841	2283,34
404,044	2297
404,247	2201,77
404,451	1648,81
404,654	1519,11
404,858	1306,46
405,061	1120,1
405,265	1065,48
405,468	1085,28
405,672	1122,83
405,875	810,17
406,078	1066,17
406,282	1154,23
406,485	1204,06
406,689	882,87
406,892	759,65
407,095	1163,45
407,299	1191,43
407,502	955,92
407,705	1187,68
407,909	1179,15
408,112	1267,89
408,315	1152,18
408,518	1113,95
408,722	1422,17
408,925	1445,04
409,128	1149,45
409,331	1176,07
409,535	1273,35
409,738	1295,54
409,941	782,52
410,144	1040,91
410,347	1203,72
410,551	1084,26
410,754	1083,92
410,957	1028,62
411,16	1259,7
411,363	1142,97
411,566	1002
411,769	1178,81
411,973	1358,34
412,176	1267,55
412,379	908,47
412,582	1074,7
412,785	1128,97
412,988	1346,74
413,191	1040,57
413,394	1023,5
413,597	1370,63
413,8	1274,38
414,003	1126,92
414,206	1643,69
414,409	2253,65
414,612	3231,55
414,815	4769,58
415,018	5989,83
415,221	6521,96
415,424	6456,42
415,627	5680,24
415,83	4345,31
416,033	3159,19
416,235	2631,16
416,438	1726,64
416,641	1333,77
416,844	1719,47
417,047	1949,52
417,25	2036,56
417,453	2112,68
417,655	2350,58
417,858	2857,8
418,061	3161,24
418,264	3582,1
418,467	4306,05
418,669	5085,31
418,872	6341,73
419,075	7738,45
419,278	8132,68
419,48	7842,21
419,683	7049,31
419,886	5451,55
420,089	3839,12
420,291	2489,16
420,494	1992,87
420,697	1535,15
420,899	1413,3
421,102	1468,25
421,305	1137,5
421,507	1073,68
421,71	1298,27
421,912	1323,87
422,115	1230,35
422,318	997,22
422,52	1232,73
422,723	1357,32
422,925	1053,54
423,128	962,06
423,33	1294,52
423,533	1445,38
423,735	1217,38
423,938	1421,49
424,14	1706,16
424,343	1761,11
424,545	1748,48
424,748	2226,34
424,95	2850,97
425,153	3326,1
425,355	3421,33
425,558	3587,22
425,76	3782,11
425,962	3733,3
426,165	3754,13
426,367	4112,18
426,57	3894,07
426,772	3362,28
426,974	2600,1
427,177	2086,74
427,379	1811,97
427,581	1587,37
427,784	1486,68
427,986	1341,28
428,188	1538,56
428,39	1714,35
428,593	1604,44
428,795	2003,11
428,997	2473,12
429,2	2623,31
429,402	2529,1
429,604	2716,49
429,806	2241,7
430,008	1641,65
430,211	1423,54
430,413	1468,59
430,615	1437,53
430,817	1510,23
431,019	1352,88
431,221	1261,41
431,423	1505,11
431,626	1511,26
431,828	1662,47
432,03	2124,28
432,232	2667,68
432,434	3074,88
432,636	3170,45
432,838	3229,85
433,04	2919,58
433,242	2711,37
433,444	2160,81
433,646	1763,5
433,848	2107,56
434,05	1885,35
434,252	1725,27
434,454	1334,45
