Data from Na 3_Subt6__0__13-46-54-289.txt Node

Date: Tue Feb 02 13:46:54 CET 2021
User: Praktikum
Spectrometer: USB4F03543
Trigger mode: 4
Integration Time (sec): 1,000000E-1
Scans to average: 6
Electric dark correction enabled: true
Nonlinearity correction enabled: false
Boxcar width: 0
XAxis mode: Wavelengths
Number of Pixels in Spectrum: 3648
>>>>>Begin Spectral Data<<<<<
179,969	568,62
180,181	568,62
180,394	568,62
180,606	555,65
180,819	526,98
181,031	-211,31
181,243	-307,91
181,456	159,03
181,668	223,88
181,88	-264,22
182,093	-41,67
182,305	259,04
182,518	275,08
182,73	-391,87
182,942	-163,18
183,155	237,88
183,367	225,25
183,579	-316,44
183,791	-247,83
184,004	241,97
184,216	235,49
184,428	-117,79
184,641	-144,07
184,853	282,59
185,065	276,45
185,277	-207,56
185,49	-237,25
185,702	272,35
185,914	202,04
186,126	-78,88
186,338	-170,69
186,551	378,5
186,763	211,59
186,975	45,37
187,187	-237,59
187,399	286
187,612	271,67
187,824	-42,01
188,036	-205,17
188,248	148,11
188,46	295,9
188,672	-211,31
188,885	-60,78
189,097	274,4
189,309	225,25
189,521	-89,8
189,733	-250,22
189,945	307,17
190,157	193,5
190,369	-166,94
190,581	-37,57
190,794	196,24
191,006	220,81
191,218	-60,44
191,43	-141,68
191,642	248,12
191,854	241,97
192,066	-302,1
192,278	-170,35
192,49	320,82
192,702	132,07
192,914	-148,51
193,126	-131,78
193,338	326,62
193,55	317,41
193,762	-143,39
193,974	155,62
194,186	280,88
194,398	219,79
194,61	-56,01
194,822	-206,19
195,034	207,16
195,246	13,62
195,457	-161,48
195,669	-304,49
195,881	291,12
196,093	264,5
196,305	-186,73
196,517	114,66
196,729	302,39
196,941	201,7
197,153	-300,06
197,365	-363,54
197,576	316,04
197,788	300
198	-227,01
198,212	-443,76
198,424	265,18
198,636	252,9
198,847	47,76
199,059	-196,63
199,271	312,29
199,483	216,37
199,695	-130,42
199,906	-211,31
200,118	181,9
200,33	215,01
200,542	-560,49
200,753	-103,45
200,965	356,66
201,177	299,66
201,389	-154,99
201,6	56,97
201,812	218,08
202,024	253,58
202,235	27,96
202,447	-337,26
202,659	307,51
202,871	280,54
203,082	-167,28
203,294	-59,42
203,506	285,32
203,717	297,27
203,929	-165,91
204,141	30,35
204,352	341,3
204,564	150,84
204,775	-161,82
204,987	-359,79
205,199	312,63
205,41	209,89
205,622	-206,87
205,833	-168,64
206,045	234,46
206,257	216,71
206,468	13,62
206,68	-78,53
206,891	236,85
207,103	190,77
207,314	-53,28
207,526	-264,22
207,737	315,36
207,949	179,17
208,16	-153,63
208,372	-96,97
208,583	259,38
208,795	231,05
209,006	-120,86
209,218	-246,13
209,429	269,28
209,641	157,67
209,852	-87,41
210,064	-219,84
210,275	271,67
210,487	199,31
210,698	-253,29
210,909	-254,66
211,121	256,65
211,332	246,07
211,544	-320,54
211,755	-350,91
211,966	149,47
212,178	209,89
212,389	-398,7
212,6	-118,13
212,812	83,6
213,023	312,97
213,234	-184,35
213,446	-220,19
213,657	264,16
213,868	306,14
214,08	-457,41
214,291	-194,93
214,502	236,51
214,714	190,43
214,925	-130,76
215,136	-101,06
215,347	185,31
215,559	209,55
215,77	63,12
215,981	-368,66
216,192	325,26
216,404	242,66
216,615	-286,4
216,826	-213,36
217,037	165,17
217,249	334,47
217,46	-392,9
217,671	-127
217,882	325,6
218,093	340,96
218,304	-200,05
218,516	-180,25
218,727	269,96
218,938	249,82
219,149	-390,17
219,36	-261,14
219,571	317,41
219,782	234,46
219,993	-369
220,205	-27,68
220,416	205,45
220,627	163,81
220,838	-232,47
221,049	-542,4
221,26	388,4
221,471	265,18
221,682	-164,89
221,893	-231,45
222,104	210,91
222,315	288,74
222,526	70,29
222,737	-147,48
222,948	284,64
223,159	230,37
223,37	-107,89
223,581	-55,32
223,792	240,61
224,003	178,83
224,214	18,74
224,425	-207,21
224,636	290,44
224,847	198,28
225,058	-142,36
225,269	-179,57
225,48	326,96
225,691	312,63
225,902	-255
226,112	-38,6
226,323	324,92
226,534	245,05
226,745	-113,35
226,956	-43,38
227,167	237,54
227,378	244,02
227,589	-30,41
227,799	-376,17
228,01	331,74
228,221	278,5
228,432	-144,75
228,643	49,81
228,853	229,69
229,064	182,58
229,275	-151,58
229,486	-44,4
229,697	265,87
229,907	215,35
230,118	-87,07
230,329	116,36
230,54	285,66
230,75	191,8
230,961	-253,29
231,172	-96,28
231,383	252,55
231,593	291,81
231,804	-62,83
232,015	-139,29
232,225	324,57
232,436	241,29
232,647	-272,07
232,857	-258,07
233,068	247,09
233,279	219,79
233,489	-128,71
233,7	-120,18
233,91	198,97
234,121	222,18
234,332	-129,39
234,542	-124,95
234,753	273,72
234,964	255,97
235,174	-108,57
235,385	-230,08
235,595	225,25
235,806	195,21
236,016	-6,51
236,227	-111,64
236,437	301,71
236,648	367,58
236,858	-116,76
237,069	7,82
237,279	263,14
237,49	249,82
237,7	-105,84
237,911	-167,96
238,121	251,87
238,332	219,79
238,542	-262,17
238,753	-32,11
238,963	322,87
239,174	240,95
239,384	-107,21
239,595	-57,03
239,805	260,4
240,015	184,29
240,226	-130,42
240,436	-136,56
240,647	355,64
240,857	229
241,067	-189,81
241,278	-652,99
241,488	343,01
241,698	188,38
241,909	-55,66
242,119	-210,63
242,329	222,52
242,54	276,11
242,75	-72,73
242,96	50,15
243,171	184,97
243,381	309,21
243,591	-5,83
243,801	-261,49
244,012	106,47
244,222	243,34
244,432	128,65
244,642	98,27
244,853	298,63
245,063	202,72
245,273	-160,11
245,483	-193,22
245,694	174,39
245,904	232,07
246,114	-187,42
246,324	51,85
246,534	192,82
246,744	294,88
246,955	151,18
247,165	-305,18
247,375	38,88
247,585	271,67
247,795	-143,04
248,005	-251,59
248,215	327,65
248,425	176,44
248,636	-518,16
248,846	-27,33
249,056	340,96
249,266	325,6
249,476	-117,79
249,686	-134,51
249,896	303,41
250,106	179,51
250,316	-77,85
250,526	-389,83
250,736	319,8
250,946	111,93
251,156	-409,96
251,366	-63,52
251,576	223,88
251,786	269,96
251,996	-14,36
252,206	31,03
252,416	273,72
252,626	258,02
252,836	40,93
253,046	-103,11
253,256	247,43
253,466	251,19
253,676	-59,42
253,885	-239,3
254,095	245,73
254,305	210,23
254,515	-61,13
254,725	-97,31
254,935	265,87
255,145	219,79
255,355	-183,32
255,564	-106,18
255,774	246,75
255,984	-5,83
256,194	-98,67
256,404	-53,62
256,614	251,19
256,823	234,81
257,033	-80,24
257,243	-202,44
257,453	396,59
257,662	245,05
257,872	-234,86
258,082	-99,7
258,292	217,06
258,501	285,32
258,711	-728,76
258,921	-333,85
259,131	268,94
259,34	192,48
259,55	-88,43
259,76	97,25
259,969	252,55
260,179	155,28
260,389	-98,33
260,598	-290,84
260,808	238,22
261,018	241,97
261,227	-277,53
261,437	81,55
261,647	355,98
261,856	271,67
262,066	-220,53
262,275	-456,38
262,485	279,52
262,694	177,12
262,904	-158,4
263,114	-268,65
263,323	250,85
263,533	276,79
263,742	-103,79
263,952	-135,19
264,161	286,35
264,371	260,4
264,58	-67,27
264,79	-54,3
264,999	1,68
265,209	312,63
265,418	-118,13
265,628	-107,89
265,837	326,28
266,047	253,58
266,256	-355,69
266,466	-4,47
266,675	259,72
266,884	287,37
267,094	-197,66
267,303	-313,03
267,513	181,22
267,722	78,82
267,931	-143,39
268,141	-73,07
268,35	283,62
268,559	225,59
268,769	12,6
268,978	113,98
269,187	252,55
269,397	210,23
269,606	132,07
269,815	-25,97
270,025	250,51
270,234	179,51
270,443	48,44
270,653	-57,37
270,862	377,14
271,071	255,28
271,28	-6,86
271,49	-179,57
271,699	177,46
271,908	167,56
272,117	-68,98
272,327	-107,55
272,536	304,44
272,745	241,63
272,954	-29,04
273,163	-215,41
273,372	-48,84
273,582	133,09
273,791	-148,85
274	2,02
274,209	38,54
274,418	121,83
274,627	-248,86
274,836	-32,8
275,046	-87,75
275,255	69,94
275,464	5,43
275,673	81,55
275,882	-3,44
276,091	137,87
276,3	-205,17
276,509	-52,59
276,718	90,08
276,927	39,57
277,136	-114,03
277,345	-58,05
277,554	-3,78
277,763	60,73
277,972	-145,78
278,181	-127
278,39	117,05
278,599	36,83
278,808	17,38
279,017	-155,67
279,226	69,26
279,435	-43,72
279,644	-51,91
279,853	-119,49
280,062	-191,17
280,271	80,52
280,48	-87,07
280,688	-28,36
280,897	130,7
281,106	67,21
281,315	12,94
281,524	-52,25
281,733	6,46
281,942	36,15
282,151	-84,68
282,359	-239,64
282,568	138,55
282,777	95,2
282,986	-113,35
283,195	-49,86
283,403	42,98
283,612	95,54
283,821	-34,16
284,03	-24,26
284,238	-90,48
284,447	88,38
284,656	-20,17
284,865	-44,4
285,073	114,32
285,282	47,76
285,491	-54,64
285,699	76,43
285,908	11,92
286,117	106,47
286,325	-91,85
286,534	-275,48
286,743	116,36
286,951	11,92
287,16	-210,63
287,369	-28,02
287,577	37,86
287,786	137,53
287,995	-46,79
288,203	51,51
288,412	-1,74
288,62	25,23
288,829	-8,56
289,037	77,11
289,246	81,55
289,455	170,29
289,663	-154,99
289,872	-257,39
290,08	-40,99
290,289	91,11
290,497	41,95
290,706	-148,85
290,914	156,3
291,123	142,99
291,331	-14,71
291,54	-181,27
291,748	8,16
291,957	2,02
292,165	-108,23
292,373	104,08
292,582	29,67
292,79	0,31
292,999	-94,58
293,207	-124,27
293,415	76,77
293,624	98,27
293,832	-123,59
294,041	-61,47
294,249	72,67
294,457	176,78
294,666	-168,99
294,874	56,63
295,082	25,23
295,291	48,1
295,499	-14,02
295,707	-72,39
295,915	-32,8
296,124	59,02
296,332	-50,89
296,54	-64,2
296,749	-62,49
296,957	77,11
297,165	-29,38
297,373	-22,9
297,581	69,94
297,79	86,33
297,998	70,63
298,206	49,81
298,414	19,43
298,622	118,41
298,831	-198,68
299,039	-28,7
299,247	-67,95
299,455	57,66
299,663	-203,46
299,871	-72,39
300,08	83,6
300,288	130,7
300,496	-80,58
300,704	-26,31
300,912	206,82
301,12	115,34
301,328	-101,4
301,536	-31,77
301,744	143,67
301,952	125,92
302,16	35,81
302,368	-10,95
302,576	-14,36
302,784	-74,44
302,992	192,14
303,2	37,18
303,408	64,14
303,616	98,27
303,824	-106,86
304,032	-222,92
304,24	-163,87
304,448	-7,54
304,656	-20,51
304,864	-238,62
305,072	7,82
305,28	-11,97
305,488	-39,62
305,696	-88,77
305,904	40,93
306,111	156,64
306,319	-31,09
306,527	-57,37
306,735	-90,82
306,943	0,65
307,151	-177,18
307,359	39,57
307,566	79,84
307,774	2,7
307,982	-150,55
308,19	23,52
308,398	89,06
308,605	78,14
308,813	41,95
309,021	-27,68
309,229	-71,02
309,436	138,89
309,644	-223,26
309,852	-153,97
310,06	3,04
310,267	80,52
310,475	-96,62
310,683	-20,17
310,89	20,45
311,098	14,99
311,306	-37,92
311,513	-260,12
311,721	111,24
311,929	2,02
312,136	-36,89
312,344	-16,07
312,552	-72,05
312,759	121,14
312,967	-163,87
313,174	-160,79
313,382	14,65
313,589	-10,61
313,797	-123,93
314,005	-212,68
314,212	75,06
314,42	110,56
314,627	-49,52
314,835	35,81
315,042	49,12
315,25	136,5
315,457	-39,62
315,665	222,52
315,872	-25,29
316,08	212,96
316,287	0,31
316,495	-177,18
316,702	43,66
316,909	195,55
317,117	-164,55
317,324	-127,34
317,532	-161,14
317,739	133,43
317,946	1
318,154	-13,68
318,361	87,69
318,569	-151,92
318,776	56,29
318,983	128,65
319,191	78,14
319,398	14,99
319,605	-76,49
319,813	-193,22
320,02	158,01
320,227	-6,17
320,434	-152,94
320,642	-53,62
320,849	142,99
321,056	10,21
321,264	-46,11
321,471	-97,31
321,678	-9,93
321,885	183,26
322,092	-171,72
322,3	5,09
322,507	187,02
322,714	-4,81
322,921	-2,08
323,128	24,55
323,336	105,44
323,543	81,89
323,75	-133,15
323,957	-158,06
324,164	9,53
324,371	110,22
324,578	147,43
324,786	-91,5
324,993	115,68
325,2	-43,04
325,407	215,69
325,614	61,75
325,821	-25,63
326,028	27,28
326,235	-97,65
326,442	-63,17
326,649	85,3
326,856	34,45
327,063	93,15
327,27	-83,31
327,477	78,14
327,684	202,38
327,891	-10,95
328,098	-82,97
328,305	69,26
328,512	172,68
328,719	-172,4
328,926	-155,33
329,133	213,3
329,34	-97,99
329,546	-7,88
329,753	5,77
329,96	198,62
330,167	1,68
330,374	-115,06
330,581	-180,59
330,788	194,87
330,995	17,04
331,201	-26,65
331,408	-41,67
331,615	129,33
331,822	36,15
332,029	-26,99
332,235	-45,08
332,442	57,31
332,649	101,69
332,856	52,54
333,062	-24,6
333,269	112,27
333,476	154,59
333,683	-38,94
333,889	-149,19
334,096	-3,44
334,303	60,39
334,509	-57,03
334,716	-64,54
334,923	64,48
335,129	13,62
335,336	-46,79
335,543	-150,55
335,749	70,29
335,956	20,11
336,163	122,17
336,369	-120,52
336,576	127,63
336,782	3,73
336,989	55,27
337,196	-91,85
337,402	92,81
337,609	227,64
337,815	-13,68
338,022	-148,51
338,228	-61,13
338,435	37,18
338,641	-182,3
338,848	-196,63
339,054	17,72
339,261	166,2
339,467	108,86
339,674	-47,47
339,88	-1,05
340,087	148,45
340,293	18,4
340,5	-7,88
340,706	-115,06
340,912	147,77
341,119	55,27
341,325	-66,93
341,532	34,1
341,738	168,25
341,944	-103,11
342,151	-68,64
342,357	46,73
342,563	-27,68
342,77	-66,25
342,976	102,37
343,182	73,7
343,389	90,76
343,595	-35,19
343,801	87,01
344,007	-9,59
344,214	235,49
344,42	-77,85
344,626	50,15
344,832	97,25
345,039	173,71
345,245	-89,8
345,451	39,57
345,657	-55,66
345,864	118,41
346,07	-95,26
346,276	-32,11
346,482	13,97
346,688	-87,07
346,894	-13,68
347,1	-39,62
347,307	111,24
347,513	-34,84
347,719	-75,46
347,925	-48,16
348,131	181,9
348,337	56,97
348,543	3,04
348,749	12,94
348,955	33,42
349,161	80,52
349,367	-144,41
349,573	-183,66
349,779	1,68
349,985	80,87
350,191	-33,14
350,397	-127,69
350,603	-28,36
350,809	114,66
351,015	-113,69
351,221	-5,83
351,427	-73,76
351,633	-108,23
351,839	-210,63
352,045	-87,75
352,251	62,43
352,457	73,36
352,663	-115,4
352,869	-72,05
353,075	-23,58
353,28	98,62
353,486	-31,09
353,692	-69,32
353,898	121,48
354,104	25,23
354,31	-187,08
354,515	76,09
354,721	38,88
354,927	82,91
355,133	-166,94
355,339	-17,09
355,544	144,69
355,75	-77,17
355,956	-54,98
356,162	-123,93
356,367	274,06
356,573	-145,78
356,779	-2,08
356,984	-90,48
357,19	-82,63
357,396	37,52
357,602	-330,09
357,807	-87,07
358,013	54,58
358,218	92,47
358,424	37,18
358,63	44
358,835	54,93
359,041	138,21
359,247	-66,59
359,452	67,9
359,658	180,88
359,863	31,03
360,069	-88,77
360,274	-68,64
360,48	95,54
360,685	152,55
360,891	-172,06
361,097	3,04
361,302	108,86
361,508	-4,81
361,713	-25,63
361,918	-323,61
362,124	55,27
362,329	-33,48
362,535	-57,71
362,74	-38,26
362,946	87,35
363,151	92,81
363,357	-14,02
363,562	99,64
363,767	173,02
363,973	-2,08
364,178	39,57
364,383	-43,72
364,589	24,89
364,794	114,32
365	-97,65
365,205	-31,09
365,41	49,46
365,615	40,25
365,821	110,56
366,026	-202,78
366,231	20,45
366,437	-66,59
366,642	113,98
366,847	-120,52
367,052	102,71
367,258	70,29
367,463	29,67
367,668	26,25
367,873	-77,17
368,078	-5,83
368,284	250,85
368,489	10,55
368,694	42,98
368,899	119,44
369,104	-234,18
369,309	-141,34
369,515	4,75
369,72	25,57
369,925	102,71
370,13	-122,91
370,335	28,64
370,54	110,22
370,745	-156,36
370,95	-106,52
371,155	40,25
371,36	-16,07
371,565	-121,2
371,77	-125,64
371,975	174,73
372,18	93,15
372,385	-196,97
372,59	-117,1
372,795	86,67
373	29,67
373,205	-229,74
373,41	-9,24
373,615	95,88
373,82	181,9
374,025	-95,6
374,23	114,66
374,435	153,57
374,64	44,34
374,845	-163,18
375,05	-1,39
375,254	117,05
375,459	90,76
375,664	49,46
375,869	-46,11
376,074	56,29
376,279	76,43
376,483	-141
376,688	-8,22
376,893	91,11
377,098	165,17
377,303	-170,69
377,507	-117,1
377,712	146,74
377,917	-25,63
378,122	-110,96
378,326	-15,73
378,531	67,9
378,736	162,1
378,94	59,02
379,145	-51,23
379,35	20,45
379,554	81,89
379,759	48,1
379,964	-101,4
380,168	170,64
380,373	63,8
380,578	-207,56
380,782	-516,46
380,987	-76,14
381,191	186
381,396	-144,41
381,601	-33,48
381,805	30,69
382,01	-24,6
382,214	-127,69
382,419	-88,09
382,623	88,72
382,828	52,19
383,032	52,54
383,237	115,34
383,441	98,62
383,646	-59,76
383,85	81,21
384,055	-216,77
384,259	154,93
384,464	169,95
384,668	9,87
384,872	-67,27
385,077	36,49
385,281	53,22
385,486	69,94
385,69	-107,89
385,894	23,86
386,099	-52,93
386,303	-120,18
386,507	-185,37
386,712	-106,52
386,916	123,53
387,12	54,93
387,325	-153,28
387,529	-18,8
387,733	-29,72
387,937	-61,47
388,142	56,29
388,346	147,08
388,55	49,46
388,754	-41,33
388,959	67,21
389,163	-43,04
389,367	130,36
389,571	18,74
389,775	-156,36
389,98	48,44
390,184	-6,17
390,388	-19,83
390,592	-162,16
390,796	31,72
391	62,09
391,204	-47,47
391,409	24,21
391,613	93,5
391,817	150,5
392,021	-126,66
392,225	0,65
392,429	36,49
392,633	-7,54
392,837	-59,76
393,041	-10,61
393,245	-59,76
393,449	152,89
393,653	-23,92
393,857	-103,11
394,061	-123,25
394,265	99,64
394,469	-82,29
394,673	-214,38
394,877	-21,87
395,081	80,18
395,285	-230,42
395,489	-58,74
395,693	65,51
395,896	78,48
396,1	-160,11
396,304	-33,48
396,508	165,52
396,712	62,09
396,916	32,74
397,12	-91,85
397,323	110,56
397,527	-31,09
397,731	-275,82
397,935	-88,43
398,139	63,8
398,342	-20,17
398,546	-33,14
398,75	29,67
398,954	5,43
399,157	-111,98
399,361	-192,54
399,565	25,23
399,769	-10,27
399,972	51,85
400,176	-28,7
400,38	-71,02
400,583	142,99
400,787	-31,77
400,991	-138,95
401,194	-185,71
401,398	36,49
401,601	31,37
401,805	-152,26
402,009	-26,99
402,212	25,91
402,416	-58,05
402,619	63,46
402,823	-249,88
403,026	163,47
403,23	100,66
403,433	-234,18
403,637	-70,68
403,841	66,87
404,044	11,92
404,247	40,59
404,451	-150,55
404,654	73,36
404,858	113,63
405,061	-39,28
405,265	-48,5
405,468	-7,2
405,672	106,47
405,875	-200,73
406,078	23,18
406,282	65,17
406,485	133,43
406,689	-184,35
406,892	-279,58
407,095	96,91
407,299	134,8
407,502	-149,87
407,705	48,78
407,909	67,55
408,112	78,14
408,315	-166,6
408,518	-258,07
408,722	49,46
408,925	67,55
409,128	-231,45
409,331	-138,27
409,535	40,25
409,738	135,48
409,941	-348,18
410,144	-50,55
410,347	69,26
410,551	6,8
410,754	-7,88
410,957	-69,66
411,16	137,87
411,363	49,46
411,566	-109,94
411,769	-38,6
411,973	70,29
412,176	46,73
412,379	-350,23
412,582	-176,15
412,785	-87,07
412,988	97,93
413,191	-108,91
413,394	-73,76
413,597	162,44
413,8	4,75
414,003	-236,57
414,206	2,7
414,409	3,04
414,612	17,04
414,815	-124,27
415,018	-87,75
415,221	51,51
415,424	-177,52
415,627	-174,79
415,83	-61,81
416,033	-24,6
416,235	170,98
416,438	-188,1
416,641	-311,32
416,844	89,4
417,047	195,89
417,25	58,34
417,453	-17,44
417,655	20,79
417,858	-11,63
418,061	-105,5
418,264	-43,04
418,467	103,39
418,669	70,97
418,872	-231,11
419,075	49,81
419,278	100,66
419,48	-87,75
419,683	-31,43
419,886	143,33
420,089	132,75
420,291	33,08
420,494	70,97
420,697	-44,06
420,899	-3,44
421,102	176,44
421,305	-167,96
421,507	-142,02
421,71	97,93
421,912	135,48
422,115	37,18
422,318	-152,6
422,52	43,32
422,723	108,86
422,925	-194,59
423,128	-305,18
423,33	59,02
423,533	174,39
423,735	-112,33
423,938	3,38
424,14	108,17
424,343	82,57
424,545	-282,31
424,748	-219,5
424,95	-63,17
425,153	65,85
425,355	-85,02
425,558	-262,85
425,76	39,57
425,962	-26,99
426,165	-77,51
426,367	-30,07
426,57	158,69
426,772	107,15
426,974	-143,73
427,177	-21,19
427,379	74,04
427,581	79,16
427,784	20,11
427,986	-47,13
428,188	168,25
428,39	172,68
428,593	-87,07
428,795	-110,28
428,997	39,22
429,2	68,24
429,402	-157,04
429,604	80,18
429,806	70,63
430,008	-157,72
430,211	-150,21
430,413	37,18
430,615	32,74
430,817	106,12
431,019	-18,12
431,221	-122,91
431,423	68,58
431,626	26,6
431,828	9,53
432,03	105,44
432,232	140,6
432,434	76,43
432,636	-4,81
432,838	71,31
433,04	-114,37
433,242	27,96
433,444	-64,88
433,646	-287,77
433,848	108,51
434,05	94,86
434,252	121,83
434,454	-45,08
434,656	217,4
434,858	119,44
435,06	102,71
435,262	-93,55
435,464	179,85
435,666	98,96
435,868	-202,09
436,07	-91,5
436,271	211,59
436,473	171,66
436,675	-205,51
436,877	-142,7
437,079	88,03
437,281	115,34
437,482	-66,59
437,684	31,37
437,886	17,72
438,088	81,89
438,29	-160,45
438,491	-73,07
