Data from Na 4_Subt6__0__13-53-55-797.txt Node

Date: Tue Feb 02 13:53:55 CET 2021
User: Praktikum
Spectrometer: USB4F03543
Trigger mode: 4
Integration Time (sec): 2,000000E-1
Scans to average: 9
Electric dark correction enabled: true
Nonlinearity correction enabled: false
Boxcar width: 0
XAxis mode: Wavelengths
Number of Pixels in Spectrum: 3648
>>>>>Begin Spectral Data<<<<<
179,969	408,08
180,181	408,08
180,394	408,08
180,606	397,61
180,819	323,65
181,031	-184,7
181,243	-222,47
181,456	121,13
181,668	216,71
181,88	-214,51
182,093	-52,94
182,305	181,89
182,518	229,68
182,73	-345,58
182,942	-158,76
183,155	203,73
183,367	225,81
183,579	-295,74
183,791	-169,91
184,004	203,73
184,216	215,57
184,428	-99,59
184,641	-114,16
184,853	274,5
185,065	247,88
185,277	-191,52
185,49	-142,37
185,702	231,95
185,914	184,62
186,126	-43,84
186,338	-112,56
186,551	346,41
186,763	184,62
186,975	52,19
187,187	-122,12
187,399	249,7
187,612	310,46
187,824	-0,61
188,036	-158,3
188,248	186,44
188,46	285,43
188,672	-157,85
188,885	-30,87
189,097	311,59
189,309	214,43
189,521	-87,08
189,733	-198,35
189,945	320,01
190,157	234,23
190,369	-113,25
190,581	-5,39
190,794	204,87
191,006	226,72
191,218	-9,48
191,43	-120,53
191,642	185,3
191,854	244,92
192,066	-214,96
192,278	-84,12
192,49	309,55
192,702	134,56
192,914	-118,48
193,126	-57,04
193,338	315,92
193,55	327,52
193,762	-50,67
193,974	129,55
194,186	288,38
194,398	191,9
194,61	-38,84
194,822	-157,39
195,034	215,34
195,246	52,87
195,457	-51,58
195,669	-201,54
195,881	259,49
196,093	264,72
196,305	-114,61
196,517	86,55
196,729	321,83
196,941	209,65
197,153	-196,07
197,365	-249,55
197,576	300,67
197,788	278,6
198	-168,54
198,212	-353,08
198,424	269,73
198,636	269,5
198,847	72,21
199,059	-172,41
199,271	293,85
199,483	234
199,695	-96,86
199,906	-125,99
200,118	194,86
200,33	221,26
200,542	-202,22
200,753	-80,48
200,965	330,03
201,177	294,98
201,389	-133,5
201,6	41,95
201,812	223,3
202,024	254,25
202,235	46,27
202,447	-259,33
202,659	310,91
202,871	298,4
203,082	-120,53
203,294	-47,71
203,506	269,04
203,717	293,62
203,929	-112,11
204,141	36,71
204,352	315,69
204,564	144,8
204,775	-113,25
204,987	-237,94
205,199	306,82
205,41	189,17
205,622	-116,2
205,833	-140,78
206,045	215,57
206,257	187,35
206,468	-33,6
206,68	-46,12
206,891	236,96
207,103	179,84
207,314	-72,74
207,526	-200,4
207,737	294,3
207,949	188,26
208,16	-90,72
208,372	-68,42
208,583	233,09
208,795	229,9
209,006	-105,74
209,218	-208,36
209,429	256,75
209,641	190,31
209,852	-87,76
210,064	-163,99
210,275	255,39
210,487	206,01
210,698	-172,41
210,909	-169,68
211,121	269,5
211,332	293,62
211,544	-232,48
211,755	-270,03
211,966	202,6
212,178	229,45
212,389	-293,24
212,6	-105,05
212,812	180,75
213,023	319,56
213,234	-136
213,446	-144,65
213,657	242,19
213,868	306,59
214,08	-340,34
214,291	-146,47
214,502	234,68
214,714	177,79
214,925	-78,2
215,136	-70,92
215,347	167,55
215,559	222,17
215,77	70,16
215,981	-310,99
216,192	312,96
216,404	255,62
216,615	-202,9
216,826	-146,47
217,037	140,48
217,249	308,18
217,46	-281,18
217,671	-75,93
217,882	330,94
218,093	328,43
218,304	-166,95
218,516	-123,94
218,727	226,72
218,938	244,01
219,149	-275,03
219,36	-235,44
219,571	273,14
219,782	246,51
219,993	-248,87
220,205	-10,62
220,416	235,14
220,627	157,31
220,838	-158,98
221,049	-406,56
221,26	350,73
221,471	250,61
221,682	-90,49
221,893	-145,56
222,104	221,03
222,315	256,75
222,526	52,41
222,737	-96,41
222,948	298,85
223,159	252,66
223,37	-52,72
223,581	-21,77
223,792	222,17
224,003	189,17
224,214	34,44
224,425	-191,75
224,636	253,57
224,847	224,21
225,058	-112,56
225,269	-143,51
225,48	278,6
225,691	292,71
225,902	-164,9
226,112	-0,38
226,323	294,53
226,534	246,29
226,745	-79,79
226,956	-11,98
227,167	234,68
227,378	271,32
227,589	-18,58
227,799	-273,21
228,01	297,94
228,221	247,65
228,432	-108,69
228,643	27,15
228,853	226,72
229,064	179,84
229,275	-107,33
229,486	-40,43
229,697	250,38
229,907	220,35
230,118	-73,88
230,329	118,4
230,54	258,12
230,75	224,21
230,961	-170,59
231,172	-79,57
231,383	228,77
231,593	340,27
231,804	99,06
232,015	-78,2
232,225	287,25
232,436	202,37
232,647	-201,76
232,857	-191,52
233,068	190,76
233,279	251,75
233,489	-95,04
233,7	-81,16
233,91	209,42
234,121	225,12
234,332	-97,77
234,542	-82,75
234,753	279,96
234,964	291,34
235,174	-56,58
235,385	-175,82
235,595	236,05
235,806	242,87
236,016	47,18
236,227	-64,55
236,437	300,9
236,648	346,87
236,858	-48,17
237,069	18,51
237,279	249,02
237,49	291,34
237,7	-53,85
237,911	-103,23
238,121	261,76
238,332	243,78
238,542	-172,64
238,753	-5,61
238,963	314,55
239,174	284,06
239,384	-23,82
239,595	-30,64
239,805	242,87
240,015	246,29
240,226	-46,57
240,436	-91,17
240,647	336,85
240,857	260,17
241,067	-98,45
241,278	-408,84
241,488	321,61
241,698	236,73
241,909	-34,28
242,119	-141,01
242,329	213,06
242,54	270,64
242,75	-41,34
242,96	100,43
243,171	204,87
243,381	309,09
243,591	55,6
243,801	-158,98
244,012	167,1
244,222	245,15
244,432	83,82
244,642	168,92
244,853	316,37
245,063	234,68
245,273	-89,12
245,483	-121,66
245,694	231,72
245,904	252,2
246,114	-124,4
246,324	65,61
246,534	249,93
246,744	278,83
246,955	172,56
247,165	-181,97
247,375	149,81
247,585	307,5
247,795	-63,18
248,005	-161,49
248,215	374,4
248,425	251,75
248,636	-302,57
248,846	46,72
249,056	366,43
249,266	322,06
249,476	-43,84
249,686	-25,41
249,896	275,19
250,106	227,17
250,316	-19,72
250,526	-219,97
250,736	313,64
250,946	230,59
251,156	-258,65
251,366	-26,09
251,576	256,98
251,786	317,06
251,996	7,13
252,206	50,14
252,416	309,77
252,626	301,81
252,836	68,11
253,046	-30,64
253,256	342,77
253,466	305,91
253,676	45,59
253,885	-104,83
254,095	260,17
254,305	221,94
254,515	-6,3
254,725	9,63
254,935	284,97
255,145	278,14
255,355	-24,73
255,564	8,04
255,774	315,46
255,984	95,88
256,194	-6,07
256,404	16,69
256,614	283,38
256,823	272
257,033	4,63
257,243	-78,43
257,453	423,1
257,662	279,74
257,872	-105,96
258,082	19,19
258,292	228,54
258,501	342,09
258,711	-468,23
258,921	-183,79
259,131	269,73
259,34	232,86
259,55	9,41
259,76	123,64
259,969	281,79
260,179	208,06
260,389	-15,17
260,598	-136,46
260,808	306,59
261,018	279,51
261,227	-99,82
261,437	179,61
261,647	365,3
261,856	311,59
262,066	-129,63
262,275	-269,35
262,485	318,42
262,694	255,16
262,904	-39,75
263,114	-123,48
263,323	281,79
263,533	309,55
263,742	-21,77
263,952	-41,11
264,161	311,14
264,371	308,41
264,58	0,3
264,79	27,38
264,999	84,04
265,209	345,5
265,418	-19,49
265,628	-32,46
265,837	367,8
266,047	318,19
266,256	-194,71
266,466	39,21
266,675	264,26
266,884	314,78
267,094	-99,82
267,303	-165,13
267,513	229,45
267,722	163
267,931	-59,09
268,141	-29,28
268,35	320,24
268,559	257,66
268,769	30,8
268,978	151,4
269,187	279,05
269,397	274,96
269,606	160,73
269,815	11,45
270,025	282,7
270,234	266,54
270,443	47,86
270,653	29,89
270,862	400,57
271,071	286,79
271,28	15,32
271,49	-91,86
271,699	195,77
271,908	205,1
272,117	-10,62
272,327	-58,41
272,536	306,59
272,745	243,1
272,954	-27,23
273,163	-173,09
273,372	57,19
273,582	146,16
273,791	-52,94
274	5,76
274,209	72,21
274,418	167,33
274,627	-139,64
274,836	-15,4
275,046	0,99
275,255	126,14
275,464	49
275,673	94,28
275,882	92,23
276,091	185,3
276,3	-116,2
276,509	-52,26
276,718	129,33
276,927	63,11
277,136	-29,51
277,345	-44,07
277,554	71,07
277,763	108,39
277,972	-84,12
278,181	-16,99
278,39	114,53
278,599	94,51
278,808	62,2
279,017	-70,24
279,226	66,98
279,435	-8,12
279,644	13,5
279,853	-32,92
280,062	-34,74
280,271	107,94
280,48	-65,91
280,688	6,67
280,897	185,08
281,106	74,26
281,315	-11,53
281,524	14,87
281,733	73,8
281,942	91,1
282,151	-9,25
282,359	-130,99
282,568	161,64
282,777	150,72
282,986	-66,6
283,195	2,58
283,403	105,66
283,612	122,73
283,821	17,82
284,03	31,93
284,238	-42,93
284,447	170,74
284,656	11
284,865	50,59
285,073	125
285,282	94,05
285,491	7,81
285,699	70,62
285,908	45,81
286,117	125,91
286,325	-54,54
286,534	-172,64
286,743	154,58
286,951	89,5
287,16	-91,86
287,369	0,08
287,577	94,97
287,786	159,36
287,995	22,83
288,203	57,42
288,412	36,26
288,62	63,11
288,829	13,73
289,037	103,16
289,246	108,85
289,455	183,71
289,663	-81,39
289,872	-134,86
290,08	26,02
290,289	160,5
290,497	13,5
290,706	-81,16
290,914	120,91
291,123	123,86
291,331	24,42
291,54	-57,49
291,748	139,34
291,957	55,6
292,165	-56,58
292,373	103,61
292,582	96,79
292,79	33,98
292,999	1,67
293,207	-39,97
293,415	122,04
293,624	107,03
293,832	-56,13
294,041	-43,61
294,249	106,57
294,457	204,65
294,666	-98,68
294,874	80,4
295,082	83,36
295,291	142,07
295,499	14,64
295,707	-38,84
295,915	14,18
296,124	105,66
296,332	-18,81
296,54	27,84
296,749	7,59
296,957	115,67
297,165	0,08
297,373	16
297,581	69,71
297,79	92,92
297,998	37,85
298,206	67,89
298,414	54,23
298,622	167,55
298,831	-136,46
299,039	-16,99
299,247	40,58
299,455	97,47
299,663	-105,51
299,871	-38,15
300,08	104,75
300,288	162,78
300,496	-82,75
300,704	-10,39
300,912	239,46
301,12	170,06
301,328	-77,75
301,536	-22,68
301,744	168,01
301,952	136,83
302,16	63,56
302,368	48,09
302,576	31,02
302,784	47,18
302,992	148,67
303,2	45,81
303,408	108,85
303,616	141,39
303,824	7,59
304,032	-120,3
304,24	-34,06
304,448	47,18
304,656	62,88
304,864	-93,68
305,072	98,61
305,28	48,32
305,488	-9,03
305,696	-24,27
305,904	104,52
306,111	121,36
306,319	-13,12
306,527	14,64
306,735	1,44
306,943	69,25
307,151	-109,83
307,359	101,34
307,566	145,94
307,774	82,45
307,982	-81,62
308,19	63,34
308,398	84,04
308,605	105,89
308,813	35,35
309,021	17,37
309,229	44,9
309,436	145,25
309,644	-144,19
309,852	-87,3
310,06	70,39
310,267	105,43
310,475	-61,36
310,683	16,69
310,89	119,09
311,098	100,65
311,306	13,73
311,513	-185,15
311,721	130,69
311,929	43,77
312,136	7,13
312,344	4,63
312,552	-12,67
312,759	228,99
312,967	-70,69
313,174	-82,3
313,382	110,44
313,589	54,23
313,797	7,59
314,005	-104,6
314,212	122,5
314,42	139,11
314,627	-39,75
314,835	73,58
315,042	96,1
315,25	89,96
315,457	-11,3
315,665	206,24
315,872	39,44
316,08	303,18
316,287	21,69
316,495	109,3
316,702	41,95
316,909	224,21
317,117	-85,71
317,324	-32,92
317,532	-63,18
317,739	162,09
317,946	51,5
318,154	21,69
318,361	97,24
318,569	-92,77
318,776	96,79
318,983	156,63
319,191	106,57
319,398	46,95
319,605	-23,82
319,813	-89,35
320,02	134,79
320,227	87,23
320,434	-33,37
320,642	-42,93
320,849	150,26
321,056	68,57
321,264	34,89
321,471	-4,02
321,678	36,26
321,885	225,58
322,092	-79,11
322,3	100,43
322,507	180,07
322,714	70,62
322,921	16,91
323,128	10,77
323,336	109,98
323,543	153,45
323,75	-22,22
323,957	-90,03
324,164	49,45
324,371	208,74
324,578	148,67
324,786	-0,15
324,993	116,58
325,2	36,03
325,407	181,89
325,614	77,9
325,821	65,38
326,028	137,74
326,235	-1,06
326,442	-12,67
326,649	101,56
326,856	122,27
327,063	125,68
327,27	-45,66
327,477	179,61
327,684	238,55
327,891	57,65
328,098	33,53
328,305	198,73
328,512	292,25
328,719	205,56
328,926	336,85
329,133	818,35
329,34	773,75
329,546	1073,67
329,753	1331,71
329,96	1709,67
330,167	1545,84
330,374	1398,16
330,581	1205,19
330,788	1171,97
330,995	725,74
331,201	430,15
331,408	274,5
331,615	354,6
331,822	168,46
332,029	39,67
332,235	49,68
332,442	70,84
332,649	191,22
332,856	108,39
333,062	49,23
333,269	165,73
333,476	208,74
333,683	42,17
333,889	-73,65
334,096	64,25
334,303	150,49
334,509	11,45
334,716	-4,48
334,923	154,58
335,129	46,95
335,336	88,37
335,543	-53,17
335,749	128,19
335,956	98,38
336,163	178,25
336,369	-48,17
336,576	189,85
336,782	79,26
336,989	94,05
337,196	-32,92
337,402	122,5
337,609	259,49
337,815	56,96
338,022	-72,51
338,228	21,92
338,435	245,15
338,641	-80,02
338,848	-34,74
339,054	126,37
339,261	196,45
339,467	147,07
339,674	36,03
339,88	97,47
340,087	163,23
340,293	77,9
340,5	90,19
340,706	-1,52
340,912	188,72
341,119	88,37
341,325	15,32
341,532	70,39
341,738	215,8
341,944	-26,32
342,151	-6,07
342,357	71,98
342,563	56,28
342,77	-17,45
342,976	145,48
343,182	208,97
343,389	98,83
343,595	21,47
343,801	131,6
344,007	61,06
344,214	246,51
344,42	-5,39
344,626	86,09
344,832	132,28
345,039	215,11
345,245	-22
345,451	59,92
345,657	56,51
345,864	159,59
346,07	-23,59
346,276	33,75
346,482	129,33
346,688	11,23
346,894	51,28
347,1	86,77
347,307	158,45
347,513	79,49
347,719	-4,25
347,925	9,41
348,131	185,53
348,337	202,14
348,543	49,45
348,749	75,17
348,955	197,59
349,161	110,67
349,367	-53,63
349,573	-53,63
349,779	130,69
349,985	165,96
350,191	56,96
350,397	-12,89
350,603	49
350,809	164,82
351,015	-33,37
351,221	63,56
351,427	-2,2
351,633	-29,73
351,839	-58,86
352,045	11
352,251	193,04
352,457	160,5
352,663	-47,48
352,869	21,24
353,075	102,7
353,28	167,78
353,486	46,72
353,692	-15,85
353,898	144,12
354,104	90,19
354,31	-73,65
354,515	91,55
354,721	179,39
354,927	157,31
355,133	-35,88
355,339	82,22
355,544	261,31
355,75	21,69
355,956	83,82
356,162	-32,69
356,367	297,94
356,573	-36,1
356,779	44,9
356,984	9,18
357,19	64,02
357,396	145,48
357,602	-114,38
357,807	19,19
358,013	186,9
358,218	236,96
358,424	121,36
358,63	96,1
358,835	187,12
359,041	217,62
359,247	43,54
359,452	105,2
359,658	238,1
359,863	147,07
360,069	12,82
360,274	-5,84
360,48	246,06
360,685	275,87
360,891	-16,76
361,097	54,01
361,302	203,28
361,508	145,48
361,713	40,13
361,918	-162,17
362,124	156,63
362,329	41,95
362,535	12,36
362,74	55,83
362,946	190,54
363,151	135,47
363,357	77,44
363,562	175,06
363,767	199,18
363,973	105,2
364,178	125,68
364,383	59,01
364,589	115,67
364,794	200,09
365	18,28
365,205	98,38
365,41	156,18
365,615	166,64
365,821	132,97
366,026	-70,69
366,231	143,21
366,437	44,22
366,642	153,67
366,847	-19,95
367,052	180,98
367,258	111,12
367,463	87
367,668	121,13
367,873	64,7
368,078	122,73
368,284	251,29
368,489	59,47
368,694	170,51
368,899	218,53
369,104	-154,89
369,309	-73,42
369,515	38,76
369,72	147,3
369,925	144,57
370,13	-23,82
370,335	210,33
370,54	190,99
370,745	-49,53
370,95	0,76
371,155	192,36
371,36	84,73
371,565	-37,24
371,77	11,23
371,975	215,11
372,18	202,37
372,385	-44,98
372,59	3,03
372,795	147,53
373	194,63
373,205	-100,05
373,41	76,31
373,615	134,79
373,82	226,04
374,025	-16,54
374,23	163,46
374,435	250,16
374,64	168,92
374,845	-42,02
375,05	61,29
375,254	193,27
375,459	146,85
375,664	121,36
375,869	34,89
376,074	159,13
376,279	130,01
376,483	-81,62
376,688	94,05
376,893	219,66
377,098	229,45
377,303	-29,96
377,507	16,69
377,712	277,23
377,917	104,29
378,122	2,58
378,326	74,49
378,531	145,48
378,736	202,14
378,94	115,67
379,145	49,91
379,35	99,29
379,554	189,17
379,759	90,64
379,964	13,5
380,168	218,53
380,373	164,6
380,578	-61,82
380,782	-311,22
380,987	20,56
381,191	267,9
381,396	-25,64
381,601	83,59
381,805	109,98
382,01	147,98
382,214	-8,34
382,419	67,2
382,623	186,21
382,828	174,38
383,032	122,04
383,237	152,54
383,441	178,02
383,646	109,3
383,85	106,34
384,055	-91,86
384,259	251,29
384,464	211,24
384,668	100,88
384,872	22,38
385,077	96,79
385,281	148,89
385,486	105,2
385,69	-33,6
385,894	135,24
386,099	62,2
386,303	-49,99
386,507	-77,75
386,712	0,3
386,916	196,91
387,12	129,33
387,325	-49,3
387,529	104,52
387,733	101,79
387,937	79,04
388,142	83,59
388,346	153,9
388,55	146,85
388,754	56,28
388,959	118,18
389,163	28,29
389,367	216,71
389,571	45,81
389,775	-24,73
389,98	168,69
390,184	41,49
390,388	31,02
390,592	-33,6
390,796	122,73
391	125,91
391,204	14,18
391,409	80,63
391,613	190,54
391,817	235,59
392,021	11
392,225	110,44
392,429	176,43
392,633	76,99
392,837	27,15
393,041	76,31
393,245	19,87
393,449	234
393,653	95,88
393,857	16,91
394,061	32,39
394,265	211,24
394,469	34,66
394,673	-94,81
394,877	120,45
395,081	196,45
395,285	-128,49
395,489	60,15
395,693	186,44
395,896	163,91
396,1	-72,29
396,304	77,9
396,508	201,23
396,712	166,64
396,916	95,42
397,12	39,9
397,323	219,66
397,527	57,42
397,731	-95,04
397,935	28,52
398,139	123,64
398,342	124,77
398,546	82,9
398,75	69,25
398,954	93,6
399,157	15,78
399,361	-52,72
399,565	100,65
399,769	124,09
399,972	135,47
400,176	67,2
400,38	-11,53
400,583	235,36
400,787	106,8
400,991	-26,55
401,194	-64,09
401,398	138,66
401,601	120,45
401,805	-40,66
402,009	60,83
402,212	139,11
402,416	115,44
402,619	142,98
402,823	-97,77
403,026	212,15
403,23	179,16
403,433	1,67
403,637	132,51
403,841	312,96
404,044	225,12
404,247	230,81
404,451	81,31
404,654	257,21
404,858	238,78
405,061	120
405,265	64,47
405,468	155,04
405,672	176,43
405,875	-90,26
406,078	94,05
406,282	173,93
406,485	223,08
406,689	-49,3
406,892	-120,98
407,095	174,15
407,299	227,86
407,502	4,63
407,705	155,27
407,909	183,71
408,112	165,73
408,315	-14,49
408,518	-73,2
408,722	176,2
408,925	193,5
409,128	-67,73
409,331	11,68
409,535	211,47
409,738	280,19
409,941	-145,79
410,144	75,4
410,347	238,55
410,551	158,45
410,754	121,36
410,957	-11,53
411,16	216,71
411,363	169,15
411,566	0,76
411,769	77,9
411,973	190,54
412,176	201,46
412,379	-163,99
412,582	-22
412,785	78,58
412,988	164,37
413,191	-17,9
413,394	38,53
413,597	239,46
413,8	112,94
414,003	-38,38
414,206	133,42
414,409	179,39
414,612	206,92
414,815	137,52
415,018	237,19
415,221	387,82
415,424	244,92
415,627	190,08
415,83	284,52
416,033	294,3
416,235	454,5
416,438	59,01
416,641	-36,56
416,844	306,59
417,047	325,02
417,25	175,97
417,453	131,15
417,655	210,79
417,858	242,42
418,061	118,18
418,264	182,8
418,467	348,91
418,669	423,32
418,872	200,55
419,075	443,35
419,278	539,37
419,48	415,59
419,683	432,65
419,886	488,86
420,089	462,69
420,291	416,27
420,494	308,18
420,697	180,52
420,899	237,19
421,102	319,56
421,305	-8,8
421,507	-27,69
421,71	212,61
421,912	235,14
422,115	76,08
422,318	-26,78
422,52	154,36
422,723	212,84
422,925	-35,65
423,128	-97,32
423,33	137,29
423,533	255,39
423,735	23,74
423,938	141,39
424,14	244,92
424,343	278,14
424,545	-48,62
424,748	-40,88
424,95	140,02
425,153	262,22
425,355	177,34
425,558	55,14
425,76	306,59
425,962	223,53
426,165	204,42
426,367	216,71
426,57	449,72
426,772	353,24
426,974	101,56
427,177	177,34
427,379	279,51
427,581	311,59
427,784	161,18
427,986	107,71
428,188	280,19
428,39	266,77
428,593	58,33
428,795	80,86
428,997	266,08
429,2	241,96
429,402	66,75
429,604	214,66
429,806	223,3
430,008	61,29
430,211	26,47
430,413	147,07
430,615	217,39
430,817	267,68
431,019	86,77
431,221	5,08
431,423	131,6
431,626	142,75
431,828	139,79
432,03	238,32
432,232	339,58
432,434	273,37
432,636	197,14
432,838	272
433,04	164,82
433,242	254,71
433,444	140,93
433,646	-14,26
433,848	364,84
434,05	274,05
434,252	275,19
434,454	200,55
434,656	401,48
434,858	419,45
435,06	341,4
435,262	194,86
435,464	430,83
435,666	311,37
435,868	52,19
436,07	122,95
436,271	328,21
436,473	317,28
436,675	-30,87
436,877	-0,38
437,079	271,09
437,281	206,47
437,482	74,03
437,684	149,81
437,886	168,01
438,088	237,41
438,29	-45,43
438,491	90,19
438,693	305,22
438,895	239,01
439,097	-38,38
439,298	50,59
439,5	105,66
439,702	235,36
439,903	51,5
440,105	90,19
440,307	185,53
440,508	114,53
440,71	49,23
440,912	-91,86
441,113	279,96
