Data from Na 5_Subt6__0__13-51-58-333.txt Node

Date: Tue Feb 02 13:51:58 CET 2021
User: Praktikum
Spectrometer: USB4F03543
Trigger mode: 4
Integration Time (sec): 2,000000E-1
Scans to average: 9
Electric dark correction enabled: true
Nonlinearity correction enabled: false
Boxcar width: 0
XAxis mode: Wavelengths
Number of Pixels in Spectrum: 3648
>>>>>Begin Spectral Data<<<<<
179,969	396,81
180,181	396,81
180,394	396,81
180,606	387,03
180,819	338,33
181,031	-177,3
181,243	-248,07
181,456	147,19
181,668	198,84
181,88	-214,85
182,093	-71,26
182,305	214,09
182,518	247,99
182,73	-333,4
182,942	-146,13
183,155	174,95
183,367	207,94
183,579	-281,29
183,791	-168,88
184,004	198,16
184,216	153,79
184,428	-125,87
184,641	-133,38
184,853	228,42
185,065	218,87
185,277	-192,55
185,49	-183,67
185,702	214,77
185,914	147,42
186,126	-75,13
186,338	-153,86
186,551	287,59
186,763	167,44
186,975	13,84
187,187	-158,64
187,399	239,12
187,612	299,88
187,824	-48,96
188,036	-174,8
188,248	168,58
188,46	288,95
188,672	-203,7
188,885	-77,41
189,097	276,44
189,309	174,95
189,521	-121,78
189,733	-203,7
189,945	296,69
190,157	222,51
190,369	-155,23
190,581	-24,61
190,794	176,77
191,006	224,1
191,218	-47,14
191,43	-147,95
191,642	162,43
191,854	200,89
192,066	-220,31
192,278	-91,51
192,49	282,58
192,702	104,86
192,914	-118,82
193,126	-106,3
193,338	288,73
193,55	303,52
193,762	-95,15
193,974	96,44
194,186	229,56
194,398	162,66
194,61	-50,33
194,822	-172,29
195,034	194,29
195,246	61,86
195,457	-119,73
195,669	-208,02
195,881	237,07
196,093	221,83
196,305	-109,95
196,517	58,44
196,729	292,82
196,941	174,27
197,153	-196,87
197,365	-267,87
197,576	269,84
197,788	245,95
198	-174,34
198,212	-375,5
198,424	235,02
198,636	225,01
198,847	18,85
199,059	-192,09
199,271	265,06
199,483	244,13
199,695	-110,86
199,906	-167,74
200,118	162,43
200,33	192,02
200,542	-246,25
200,753	-116,54
200,965	298,06
201,177	278,94
201,389	-147,49
201,6	41,15
201,812	193,15
202,024	221,37
202,235	0,42
202,447	-288,12
202,659	279,85
202,871	246,17
203,082	-183,9
203,294	-56,93
203,506	257,32
203,717	265,06
203,929	-157,5
204,141	15,44
204,352	304,2
204,564	86,89
204,775	-126,1
204,987	-255,35
205,199	231,61
205,41	176,09
205,622	-159,1
205,833	-163,65
206,045	198,39
206,257	160,39
206,468	2,69
206,68	-85,37
206,891	228,2
207,103	171,99
207,314	-82,87
207,526	-224,86
207,737	276,67
207,949	169,94
208,16	-141,35
208,372	-76,5
208,583	213,86
208,795	205,9
209,006	-103,57
209,218	-219,17
209,429	221,6
209,641	155,84
209,852	-82,18
210,064	-162,28
210,275	220,92
210,487	200,89
210,698	-186,18
210,909	-214,16
211,121	241,39
211,332	229,79
211,544	-268,09
211,755	-284,93
211,966	202,26
212,178	195,66
212,389	-298,13
212,6	-147,72
212,812	141,04
213,023	272,34
213,234	-129,29
213,446	-177,3
213,657	220,46
213,868	299,88
214,08	-387,1
214,291	-149,31
214,502	221,37
214,714	155,84
214,925	-103,8
215,136	-97,43
215,347	140,13
215,559	168,58
215,77	39,56
215,981	-345,69
216,192	281,9
216,404	231,84
216,615	-211,66
216,826	-157,28
217,037	146,51
217,249	272,34
217,46	-303,14
217,671	-100,39
217,882	278,94
218,093	301,92
218,304	-202,56
218,516	-172,29
218,727	197,48
218,938	202,26
219,149	-309,74
219,36	-231,46
219,571	264,38
219,782	234,34
219,993	-281,52
220,205	-36,22
220,416	202,48
220,627	142,86
220,838	-188,22
221,049	-408,49
221,26	312,16
221,471	224,33
221,682	-155
221,893	-210,52
222,104	159,48
222,315	218,87
222,526	41,38
222,737	-103,35
222,948	250,95
223,159	205,9
223,37	-112,45
223,581	-76,5
223,792	200,21
224,003	149,46
224,214	11,11
224,425	-191,41
224,636	206,58
224,847	194,75
225,058	-135,66
225,269	-158,87
225,48	241,39
225,691	263,47
225,902	-193
226,112	-54,65
226,323	276,44
226,534	225,24
226,745	-106,99
226,956	-63,07
227,167	201,12
227,378	200,21
227,589	-32,81
227,799	-330,9
228,01	243,22
228,221	250,95
228,432	-160,69
228,643	5,2
228,853	200,66
229,064	151,51
229,275	-103,12
229,486	-83,32
229,697	225,01
229,907	161,52
230,118	-99,25
230,329	91,67
230,54	270,52
230,75	176,54
230,961	-196,42
231,172	-105,17
231,383	231,38
231,593	242,53
231,804	55,03
232,015	-152,27
232,225	245,49
232,436	167,44
232,647	-223,04
232,857	-213,03
233,068	173,36
233,279	229,33
233,489	-99,48
233,7	-122,46
233,91	180,18
234,121	199,75
234,332	-151,36
234,542	-115,63
234,753	240,26
234,964	239,8
235,174	-87,87
235,385	-170,93
235,595	192,02
235,806	235,02
236,016	-0,95
236,227	-102,21
236,437	258,23
236,648	311,71
236,858	-75,36
237,069	-24,39
237,279	202,03
237,49	243,9
237,7	-85,14
237,911	-164,1
238,121	209,31
238,332	207,49
238,542	-228,05
238,753	-65,57
238,963	265,06
239,174	214,54
239,384	-61,93
239,595	-45,78
239,805	226,83
240,015	165,85
240,226	-86,96
240,436	-139,3
240,647	268,47
240,857	194,97
241,067	-160,92
241,278	-486,54
241,488	268,93
241,698	189,97
241,909	-66,03
242,119	-184,36
242,329	175,18
242,54	270,07
242,75	-86,74
242,96	53,21
243,171	158,57
243,381	289,86
243,591	3,6
243,801	-192,77
244,012	130,8
244,222	177,68
244,432	44,11
244,642	117,38
244,853	230,47
245,063	180,87
245,273	-139,53
245,483	-176,16
245,694	164,48
245,904	204,99
246,114	-148,63
246,324	21,81
246,534	189,06
246,744	256,87
246,955	127,39
247,165	-213,94
247,375	65,72
247,585	243,22
247,795	-114,72
248,005	-205,97
248,215	314,44
248,425	188,15
248,636	-349,1
248,846	-29,16
249,056	277,58
249,266	273,02
249,476	-126,78
249,686	-119,96
249,896	223,19
250,106	166,08
250,316	-76,27
250,526	-278,33
250,736	253,68
250,946	173,58
251,156	-328,4
251,366	-66,71
251,576	211,59
251,786	266,65
251,996	-36,67
252,206	1,33
252,416	235,48
252,626	214,54
252,836	45,02
253,046	-75,59
253,256	278,71
253,466	250,27
253,676	-6,18
253,885	-178,44
254,095	189,06
254,305	203,17
254,515	-59,66
254,725	-63,52
254,935	225,92
255,145	210,45
255,355	-128,83
255,564	-63,3
255,774	237,75
255,984	42,97
256,194	-50,78
256,404	-39,63
256,614	238,89
256,823	246,4
257,033	-52,15
257,243	-139,53
257,453	337,65
257,662	232,52
257,872	-159,1
258,082	-76,5
258,292	189,06
258,501	287,13
258,711	-555,72
258,921	-231
259,131	219,55
259,34	166,08
259,55	-76,5
259,76	90,98
259,969	209,54
260,179	126,48
260,389	-71,49
260,598	-184,58
260,808	232,29
261,018	226,83
261,227	-174,8
261,437	84,61
261,647	286,68
261,856	212,95
262,066	-170,25
262,275	-350,92
262,485	229,11
262,694	188,6
262,904	-109,95
263,114	-191,64
263,323	236,62
263,533	258,23
263,742	-85,14
263,952	-143,17
264,161	220
264,371	240,26
264,58	-52,83
264,79	-69,21
264,999	19,76
265,209	265,97
265,418	-103,8
265,628	-81,96
265,837	293,05
266,047	232,75
266,256	-253,99
266,466	-18,01
266,675	193,84
266,884	247,99
267,094	-160,69
267,303	-205,52
267,513	185,87
267,722	85,29
267,931	-102,21
268,141	-75,59
268,35	237,3
268,559	190,2
268,769	-3,68
268,978	77,33
269,187	237,3
269,397	218,18
269,606	100,31
269,815	-37,81
270,025	218,64
270,234	188,83
270,443	1,1
270,653	-39,18
270,862	341,52
271,071	217,5
271,28	1,78
271,49	-148,17
271,699	148,78
271,908	150,37
272,117	-60,79
272,327	-124,96
272,536	258,46
272,745	188,6
272,954	-67,39
273,163	-218,72
273,372	2,92
273,582	102,82
273,791	-138,62
274	-23,25
274,209	49,34
274,418	118,97
274,627	-173,89
274,836	-34,17
275,046	-55,79
275,255	95,76
275,464	41,15
275,673	95,08
275,882	55,03
276,091	152,19
276,3	-172,07
276,509	-68,3
276,718	94,62
276,927	45,47
277,136	-50,55
277,345	-54,42
277,554	30,68
277,763	95,53
277,972	-114,27
278,181	-89,47
278,39	78,92
278,599	50,71
278,808	4,97
279,017	-123,83
279,226	16,12
279,435	-29,16
279,644	-41
279,853	-60,11
280,062	-59,88
280,271	49,57
280,48	-76,72
280,688	-46,91
280,897	157,66
281,106	55,48
281,315	-42,82
281,524	-16,42
281,733	45,93
281,942	54,12
282,151	-58,06
282,359	-157,5
282,568	87,57
282,777	93,71
282,986	-92,65
283,195	-28,48
283,403	68,91
283,612	70,96
283,821	-14,6
284,03	-26,89
284,238	-79
284,447	94,17
284,656	-52,6
284,865	-9,37
285,073	98,04
285,282	80,74
285,491	-41,22
285,699	35,69
285,908	17,71
286,117	111,92
286,325	-102,66
286,534	-198,69
286,743	100,54
286,951	53,89
287,16	-141,8
287,369	-27,57
287,577	23,86
287,786	121,93
287,995	-20,75
288,203	14,07
288,412	-2,31
288,62	29,54
288,829	2,24
289,037	76,65
289,246	73,46
289,455	197,02
289,663	-100,16
289,872	-178,89
290,08	4,97
290,289	120,34
290,497	-18,24
290,706	-119,73
290,914	102,36
291,123	108,05
291,331	-26,21
291,54	-76,95
291,748	111,92
291,957	15,21
292,165	-86,05
292,373	56,62
292,582	77,1
292,79	17,48
292,999	-42,59
293,207	-89,24
293,415	70,28
293,624	85,75
293,832	-115,63
294,041	-47,37
294,249	64,81
294,457	169,72
294,666	-139,3
294,874	16,35
295,082	74,14
295,291	110,78
295,499	-16,42
295,707	-66,94
295,915	3,38
296,124	85,75
296,332	-54,2
296,54	-38,95
296,749	-17,79
296,957	69,37
297,165	-18,92
297,373	-15,06
297,581	19,53
297,79	49,34
297,998	18,39
298,206	6,79
298,414	20,9
298,622	129,89
298,831	-182,53
299,039	-41,91
299,247	-12,33
299,455	99,4
299,663	-195,28
299,871	-48,05
300,08	67,32
300,288	123,75
300,496	-89,69
300,704	-24,84
300,912	194,52
301,12	139
301,328	-105,62
301,536	-34,4
301,744	125,57
301,952	111,92
302,16	5,2
302,368	3,83
302,576	-4,82
302,784	9,29
302,992	125,12
303,2	-11,87
303,408	67,09
303,616	94,85
303,824	-69,21
304,032	-158,87
304,24	-67,17
304,448	-3,22
304,656	-9,37
304,864	-164,33
305,072	38,42
305,28	20,21
305,488	-70,12
305,696	-67,39
305,904	40,01
306,111	61,4
306,319	-43,27
306,527	-18,47
306,735	-35,54
306,943	32,73
307,151	-151,36
307,359	35,01
307,566	105,09
307,774	11,79
307,982	-127,47
308,19	19,3
308,398	61,17
308,605	64,59
308,813	16,57
309,021	-19,83
309,229	10,2
309,436	90,53
309,644	-175,94
309,852	-123,37
310,06	37,96
310,267	39,1
310,475	-101,07
310,683	-5,73
310,89	87,8
311,098	55,26
311,306	-31,21
311,513	-200,06
311,721	125,34
311,929	16,35
312,136	5,42
312,344	-15,51
312,552	-47,6
312,759	174,04
312,967	-104,26
313,174	-128,6
313,382	42,97
313,589	19,99
313,797	-30,76
314,005	-151,82
314,212	72,1
314,42	70,73
314,627	-71,26
314,835	58,22
315,042	46,38
315,25	59,35
315,457	-69,44
315,665	158,79
315,872	22,94
316,08	242,53
316,287	-0,72
316,495	47,29
316,702	6,11
316,909	182,91
317,117	-118,14
317,324	-59,88
317,532	-120,19
317,739	122,39
317,946	6,33
318,154	-0,49
318,361	84,16
318,569	-145,9
318,776	61,17
318,983	101,68
319,191	61,63
319,398	4,06
319,605	-90,38
319,813	-132,93
320,02	79,38
320,227	39,1
320,434	-86,74
320,642	-73,76
320,849	113,51
321,056	21,81
321,264	-3,68
321,471	-57,84
321,678	7,93
321,885	146,73
322,092	-146,13
322,3	38,87
322,507	123,52
322,714	-5,04
322,921	8,61
323,128	-23,48
323,336	74,6
323,543	105,09
323,75	-94,7
323,957	-152,04
324,164	26,81
324,371	136,27
324,578	138,77
324,786	-54,42
324,993	85,52
325,2	-5,73
325,407	159,48
325,614	51,84
325,821	22,49
326,028	68,46
326,235	-56,24
326,442	-51,01
326,649	56,62
326,856	73,69
327,063	73,92
327,27	-73,76
327,477	103,73
327,684	169,26
327,891	-20,52
328,098	-66,03
328,305	83,7
328,512	169,26
328,719	-48,28
328,926	6,11
329,133	288,04
329,34	142,41
329,546	263,69
329,753	402,96
329,96	634,15
330,167	441,41
330,374	348,12
330,581	245,72
330,788	388,85
330,995	184,51
331,201	42,06
331,408	17,03
331,615	159,93
331,822	61,86
332,029	-34,63
332,235	-7,32
332,442	4,97
332,649	91,44
332,856	34,09
333,062	-32,35
333,269	104,41
333,476	161,3
333,683	-9,37
333,889	-137,25
334,096	2,92
334,303	109,19
334,509	-41,22
334,716	-36,67
334,923	113,06
335,129	15,21
335,336	43,88
335,543	-115,86
335,749	79,83
335,956	63,68
336,163	115,33
336,369	-75,81
336,576	146,73
336,782	33,18
336,989	42,74
337,196	-62,61
337,402	78,24
337,609	194,75
337,815	-10,05
338,022	-80,36
338,228	-14,37
338,435	152,19
338,641	-124,28
338,848	-104,48
339,054	74,83
339,261	163,34
339,467	66,18
339,674	-30,3
339,88	28,63
340,087	84,84
340,293	18,17
340,5	-0,95
340,706	-43,5
340,912	121,25
341,119	26,81
341,325	-76,95
341,532	15,66
341,738	153,79
341,944	-55,33
342,151	-62,39
342,357	45,93
342,563	-8,46
342,77	-67,85
342,976	111,24
343,182	141,73
343,389	70,73
343,595	-29,16
343,801	60,72
344,007	-1,18
344,214	206,35
344,42	-85,37
344,626	51,84
344,832	98,26
345,039	168,35
345,245	-87,65
345,451	-13,24
345,657	4,29
345,864	89,39
346,07	-94,24
346,276	-18,47
346,482	57,53
346,688	-32,81
346,894	-12,78
347,1	-0,27
347,307	93,94
347,513	2,01
347,719	-63,3
347,925	-23,48
348,131	137,86
348,337	121,02
348,543	7,47
348,749	6,79
348,955	114,19
349,161	43,65
349,367	-123,37
349,573	-124,05
349,779	52,3
349,985	111,92
350,191	-20,52
350,397	-94,24
350,603	13,16
350,809	101,91
351,015	-93,11
351,221	-1,18
351,427	-40,09
351,633	-83,09
351,839	-141,35
352,045	-84,69
352,251	150,83
352,457	80,52
352,663	-98,57
352,869	-35,76
353,075	7,24
353,28	117,38
353,486	-10,28
353,692	-60,79
353,898	105,09
354,104	22,72
354,31	-150,68
354,515	23,86
354,721	78,24
354,927	74,14
355,133	-63,07
355,339	13,62
355,544	184,51
355,75	-52,37
355,956	-9,82
356,162	-125,87
356,367	257,32
356,573	-125,87
356,779	-31,67
356,984	-80,36
357,19	-20,52
357,396	71,87
357,602	-186,63
357,807	-74,22
358,013	79,61
358,218	135,36
358,424	19,3
358,63	6,11
358,835	78,01
359,041	116,47
359,247	-18,01
359,452	11,57
359,658	168,58
359,863	71,19
360,069	-67,17
360,274	-31,9
360,48	182,46
360,685	170,63
360,891	-104,71
361,097	10,2
361,302	141,5
361,508	66,18
361,713	-32,12
361,918	-218,03
362,124	66,63
362,329	-2,09
362,535	-40,31
362,74	-24,39
362,946	132,85
363,151	93,03
363,357	-21,2
363,562	108,28
363,767	117,38
363,973	1,33
364,178	16,35
364,383	-55,11
364,589	37,96
364,794	136,95
365	-66,26
365,205	-10,73
365,41	101,91
365,615	80,52
365,821	55,94
366,026	-131,79
366,231	30
366,437	-33,49
366,642	65,5
366,847	-79,91
367,052	94,62
367,258	34,32
367,463	12,02
367,668	23,86
367,873	-4,82
368,078	11,57
368,284	197,93
368,489	-19,15
368,694	92,12
368,899	133,31
369,104	-218,49
369,309	-129,74
369,515	-35,31
369,72	96,22
369,925	90,76
370,13	-90,15
370,335	102,13
370,54	90,07
370,745	-154,09
370,95	-82,41
371,155	126,25
371,36	-3,22
371,565	-108,81
371,77	-103,12
371,975	107,14
372,18	119,2
372,385	-118,14
372,59	-56,93
372,795	86,66
373	111,24
373,205	-163,65
373,41	19,76
373,615	76,65
373,82	145,82
374,025	-106,99
374,23	94,85
374,435	173,13
374,64	83,25
374,845	-115,63
375,05	-8,46
375,254	104,41
375,459	55,48
375,664	29,09
375,869	-58,75
376,074	74,83
376,279	62,77
376,483	-124,51
376,688	15,66
376,893	142,86
377,098	121,93
377,303	-138,16
377,507	-68,3
377,712	182,46
377,917	20,21
378,122	-71,72
378,326	-2,77
378,531	79,38
378,736	125,12
378,94	60,72
379,145	-22,34
379,35	25,9
379,554	99,63
379,759	8,84
379,964	-84,69
380,168	154,01
380,373	98,95
380,578	-145,67
380,782	-401,44
380,987	-35,76
381,191	199,75
381,396	-99,02
381,601	3,38
381,805	32,27
382,01	76,65
382,214	-48,05
382,419	-13,01
382,623	86,43
382,828	54,12
383,032	74,83
383,237	75,96
383,441	70,5
383,646	17,48
383,85	72,32
384,055	-171,61
384,259	161,98
384,464	141,27
384,668	16,57
384,872	-58,29
385,077	27,04
385,281	87,8
385,486	41,38
385,69	-66,71
385,894	81,65
386,099	-4,36
386,303	-99,25
386,507	-136,34
386,712	-64,21
386,916	95,31
387,12	63,68
387,325	-88,1
387,529	2,69
387,733	23,4
387,937	-29,16
388,142	8,61
388,346	83,47
388,55	86,89
388,754	-21,66
388,959	45,47
389,163	0,19
389,367	146,51
389,571	-6,64
389,775	-108,81
389,98	58,44
390,184	-27,57
390,388	-51,24
390,592	-96,06
390,796	50,93
391	40,47
391,204	-60,11
391,409	17,26
391,613	102,13
391,817	155,61
392,021	-86,74
392,225	46,16
392,429	48,2
392,633	13,84
392,837	-49,87
393,041	4,51
393,245	-45,32
393,449	146,73
393,653	1,55
393,857	-44,18
394,061	-71,49
394,265	125,57
394,469	-83,32
394,673	-186,63
394,877	28,86
395,081	85,52
395,285	-194,14
395,489	-53,06
395,693	75,51
395,896	78,01
396,1	-170,47
396,304	-6,64
396,508	140,36
396,712	85,98
396,916	29,77
397,12	-33,72
397,323	134,67
397,527	-16,19
397,731	-192,77
397,935	-69,9
398,139	40,01
398,342	57,99
398,546	-14,37
398,75	18,85
398,954	10,66
399,157	-37,13
399,361	-133,61
399,565	4,97
399,769	35,01
399,972	43,42
400,176	-9,6
400,38	-63,07
400,583	124,89
400,787	2,92
400,991	-114,27
401,194	-135,66
401,398	60,72
401,601	12,25
401,805	-80,82
402,009	10,2
402,212	35,92
402,416	37,74
402,619	57,76
402,823	-224,4
403,026	99,63
403,23	50,25
403,433	-145,9
403,637	-39,86
403,841	82,11
404,044	49,34
404,247	4,29
404,451	-171,38
404,654	98,04
404,858	74,14
405,061	-63,07
405,265	-40,77
405,468	27,5
405,672	54,57
405,875	-167,97
406,078	-14,37
406,282	65,04
406,485	106,46
406,689	-151,82
406,892	-210,52
407,095	82,11
407,299	141,95
407,502	-119,28
407,705	50,48
407,909	68,68
408,112	72,32
408,315	-125,65
408,518	-180,49
408,722	79,83
408,925	59,81
409,128	-160,46
409,331	-97,43
409,535	126,48
409,738	178,14
409,941	-233,28
410,144	-41,22
410,347	119,65
410,551	68,46
410,754	15,21
410,957	-64,21
411,16	112,37
411,363	72,32
411,566	-104,26
411,769	-12,55
411,973	79,38
412,176	95,53
412,379	-268,09
412,582	-116,09
412,785	-43,05
412,988	78,47
413,191	-97,43
413,394	-73,99
413,597	147,64
413,8	-21,43
414,003	-155,46
414,206	8,61
414,409	26,13
414,612	74,83
414,815	-57,61
415,018	0,19
415,221	121,02
415,424	-25,52
415,627	-61,02
415,83	36,83
416,033	49,34
416,235	230,24
416,438	-131,79
416,641	-230,55
416,844	129,21
417,047	187,24
417,25	23,17
417,453	-22,11
417,655	30,23
417,858	29,09
418,061	-92,65
418,264	-25,75
418,467	144,91
418,669	124,66
418,872	-95,84
419,075	122,61
419,278	195,88
419,48	73,01
419,683	55,26
419,886	158,79
420,089	143,09
420,291	150,83
420,494	46,61
420,697	-25,52
420,899	55,94
421,102	138,77
421,305	-86,74
421,507	-166,61
421,71	119,88
421,912	114,19
422,115	-9,82
422,318	-152,73
422,52	58,44
422,723	98,04
422,925	-152,27
423,128	-239,65
423,33	30,68
423,533	181,32
423,735	-78,77
423,938	58,22
424,14	93,26
424,343	174,27
424,545	-194,59
424,748	-192,09
424,95	-2,77
425,153	69,37
425,355	-23,25
425,558	-181,17
425,76	91,44
425,962	4,29
426,165	-6,18
426,367	-13,92
426,57	192,93
426,772	129,89
426,974	-137,48
427,177	-23,25
427,379	77,78
427,581	181,09
427,784	24,08
427,986	-27,12
428,188	166,76
428,39	134,45
428,593	-58,97
428,795	-67,39
428,997	111,69
429,2	93,49
429,402	-115,18
429,604	32,27
429,806	71,19
430,008	-80,59
430,211	-97,2
430,413	21,58
430,615	55,71
430,817	116,47
431,019	-39,86
431,221	-122,69
431,423	34,55
431,626	8,38
431,828	3,15
432,03	92,35
432,232	179,27
432,434	95,53
432,636	20,9
432,838	52,3
433,04	-29,85
433,242	62,54
433,444	-50,55
433,646	-240,56
433,848	89,85
434,05	48,43
434,252	51,16
434,454	-111,77
434,656	80,29
434,858	58,9
435,06	-76,72
435,262	-202,79
435,464	25,68
435,666	-58,29
435,868	-303,14
436,07	-184,58
436,271	52,53
436,473	109,41
436,675	-225,09
436,877	-231,69
437,079	108,5
437,281	73,92
437,482	-77,41
437,684	11,79
437,886	49,34
438,088	122,61
438,29	-179,58
438,491	-49,19
438,693	153,79
438,895	111,46
439,097	-181,85
439,298	-82,41
439,5	-9,37
439,702	84,84
439,903	-102,44
440,105	-32,81
